BEGIN_SCAN_DATA
	FORMAT=CC-Export V1.9                  
	FILE_CREATION_DATE=15-Mar-2022 16:00:36
	LAST_MODIFIED=15-Mar-2022 16:00:36
	BEGIN_SCAN  1
		TASK_NAME=tba PDD Profiles
		PROGRAM=WaterTankScans
		COMMENT=Average
		MEAS_DATE=15-Mar-2022 15:52:23
		LINAC=MRIdian
		MODALITY=X
		ISOCENTER=900.00
		INPLANE_AXIS=Y
		CROSSPLANE_AXIS=X
		DEPTH_AXIS=Depth
		INPLANE_AXIS_DIR=TARGET_GUN
		CROSSPLANE_AXIS_DIR=LEFT_RIGHT
		DEPTH_AXIS_DIR=UP_DOWN
		ENERGY=6.00
		NOMINAL_DMAX=15.00
		SSD=850.00
		SCD=450.00
		WEDGE_ANGLE=0.00
		FIELD_INPLANE=42.00
		FIELD_CROSSPLANE=42.00
		FIELD_TYPE=RECTANGULAR
		GANTRY=0.00
		GANTRY_UPRIGHT_POSITION=0
		GANTRY_ROTATION=CW
		COLL_ANGLE=0.00
		COLL_OFFSET_INPLANE=0.00
		COLL_OFFSET_CROSSPLANE=0.00
		SCAN_DEVICE=BeamScan
		SCAN_DEVICE_SETUP=BARA_LEFT_RIGHT
		ELECTROMETER=BeamScan
		RANGE_FIELD=LOW
		RANGE_REFERENCE=MEDIUM
		DETECTOR=THIMBLE_CHAMBER
		DETECTOR_RADIUS=2.40
		DETECTOR_NAME=A28MR
		DETECTOR_SN=-
		DETECTOR_CALIBRATION=588000000.00
		DETECTOR_IS_CALIBRATED=0
		DETECTOR_REFERENCE=THIMBLE_CHAMBER
		DETECTOR_REFERENCE_RADIUS=2.75
		DETECTOR_REFERENCE_NAME=A28MR
		DETECTOR_REFERENCE_SN=—
		DETECTOR_REFERENCE_IS_CALIBRATED=0
		DETECTOR_REFERENCE_CALIBRATION=303000000.00
		DETECTOR_HV=300.0
		DETECTOR_REFERENCE_HV=300.0
		DETECTOR_ORIENTATION=HORIZONTAL
		FILTER=FFF
		SCAN_SPEED_PROFILE=10.00
		SCAN_PROF_SPEED_DEP=DEPTH
		SCAN_SPEED_PDD=0.00
		SCAN_PDD_SPEED_DEP=ENERGY
		DETECTOR_TYPE=A28MR
		REF_FIELD_DEPTH=50.00
		REF_FIELD_DEFINED=ISOCENTER
		REF_FIELD_INPLANE=100.00
		REF_FIELD_CROSSPLANE=100.00
		REF_SCAN_POSITIONS=-85.00;-84.00;-83.00;-82.00;-81.00;-80.00;-79.00;-78.00;-77.00;-76.00;-75.00;-74.00;-73.00;-72.00;-71.00;-70.00;-69.00;-68.00;-67.00;-66.00;-65.00;-64.00;-63.00;-62.00;-61.00;-60.00;-59.00;-58.00;-57.00;-56.00;-55.00;-54.00;-53.00;-52.00;-51.00;-50.00;-49.00;-48.00;-47.00;-46.00;-45.00;-44.00;-43.00;-42.00;-41.00;-40.00;-39.00;-38.00;-37.00;-36.00;-35.00;-34.00;-33.00;-32.00;-31.00;-30.00;-29.00;-28.00;-27.00;-26.00;-25.00;-24.00;-23.00;-22.00;-21.00;-20.00;-19.00;-18.00;-17.00;-16.00;-15.00;-14.00;-13.00;-12.00;-11.00;-10.00;-9.00;-8.00;-7.00;-6.00;-5.00;-4.00;-3.00;-2.00;-1.00;0.00;1.00;2.00;3.00;4.00;5.00;6.00;7.00;8.00;9.00;10.00;11.00;12.00;13.00;14.00;15.00;16.00;17.00;18.00;19.00;20.00;21.00;22.00;23.00;24.00;25.00;26.00;27.00;28.00;29.00;30.00;31.00;32.00;33.00;34.00;35.00;36.00;37.00;38.00;39.00;40.00;41.00;42.00;43.00;44.00;45.00;46.00;47.00;48.00;49.00;50.00;51.00;52.00;53.00;54.00;55.00;56.00;57.00;58.00;59.00;60.00;61.00;62.00;63.00;64.00;65.00;66.00;67.00;68.00;69.00;70.00;71.00;72.00;73.00;74.00;75.00;76.00;77.00;78.00;79.00;80.00;81.00;82.00;83.00;84.00;85.00;
		REF_OVERSCAN_FACTOR=1.00
		SCAN_CURVETYPE=CROSSPLANE_PROFILE
		SCAN_DEPTH=20.00
		SCAN_OFFAXIS_INPLANE=0.00
		SCAN_OFFAXIS_CROSSPLANE=0.00
		SCAN_ANGLE=0.00
		SCAN_DIAGONAL=NOT_DIAGONAL
		SCAN_DIRECTION=POSITIVE
		MEAS_MEDIUM=WATER
		MEAS_PRESET=MEAS_CONTINUOUS_REFERENCE_SCAN
		MEAS_TIME=0.100
		MEAS_UNIT=A.U.
		INCLINATION_ANGLE=0.00
		PRESSURE=1013.25
		TEMPERATURE=20.00
		NORM_TEMPERATURE=20.00
		CORRECTION_FACTOR=1.0000
		EXPECTED_MAX_DOSE_RATE=3.00
		EPOM_DEPTH_SHIFT=0.2
		EPOM_MODE=SHIFT_PROTOCOL
		CORRECTIONS=CAX_CORR;INTERPOLATED_CORR;SYMMETRY_CORR;ADD_CURVES_CORR;
		BEGIN_DATA
			-50.00		2.9203E+00
			-49.50		3.0468E+00
			-49.00		3.1032E+00
			-48.50		3.1614E+00
			-48.00		3.2250E+00
			-47.50		3.2885E+00
			-47.00		3.3525E+00
			-46.50		3.4271E+00
			-46.00		3.5018E+00
			-45.50		3.5773E+00
			-45.00		3.6542E+00
			-44.50		3.7406E+00
			-44.00		3.8283E+00
			-43.50		3.9157E+00
			-43.00		4.0054E+00
			-42.50		4.1013E+00
			-42.00		4.1983E+00
			-41.50		4.3170E+00
			-41.00		4.4362E+00
			-40.50		4.5490E+00
			-40.00		4.6649E+00
			-39.50		4.7947E+00
			-39.00		4.9310E+00
			-38.50		5.0873E+00
			-38.00		5.2454E+00
			-37.50		5.4155E+00
			-37.00		5.5879E+00
			-36.50		5.7726E+00
			-36.00		5.9658E+00
			-35.50		6.1991E+00
			-35.00		6.4387E+00
			-34.50		6.7145E+00
			-34.00		7.0018E+00
			-33.50		7.3230E+00
			-33.00		7.6550E+00
			-32.50		8.0499E+00
			-32.00		8.4590E+00
			-31.50		8.9407E+00
			-31.00		9.4446E+00
			-30.50		10.064E+00
			-30.00		10.712E+00
			-29.50		11.486E+00
			-29.00		12.344E+00
			-28.50		13.382E+00
			-28.00		14.515E+00
			-27.50		16.047E+00
			-27.00		17.729E+00
			-26.50		20.086E+00
			-26.00		22.805E+00
			-25.50		26.878E+00
			-25.00		31.581E+00
			-24.50		38.802E+00
			-24.00		47.287E+00
			-23.50		59.452E+00
			-23.00		73.471E+00
			-22.50		91.858E+00
			-22.00		111.55E+00
			-21.50		134.42E+00
			-21.00		158.30E+00
			-20.50		183.82E+00
			-20.00		209.68E+00
			-19.50		235.92E+00
			-19.00		261.65E+00
			-18.50		285.51E+00
			-18.00		308.57E+00
			-17.50		328.73E+00
			-17.00		347.52E+00
			-16.50		361.88E+00
			-16.00		374.84E+00
			-15.50		383.99E+00
			-15.00		392.00E+00
			-14.50		397.69E+00
			-14.00		402.68E+00
			-13.50		406.35E+00
			-13.00		409.44E+00
			-12.50		411.77E+00
			-12.00		413.99E+00
			-11.50		415.59E+00
			-11.00		416.83E+00
			-10.50		417.94E+00
			-10.00		419.18E+00
			-9.50		420.10E+00
			-9.00		420.91E+00
			-8.50		421.55E+00
			-8.00		422.19E+00
			-7.50		422.81E+00
			-7.00		423.37E+00
			-6.50		423.85E+00
			-6.00		424.34E+00
			-5.50		424.66E+00
			-5.00		424.96E+00
			-4.50		425.30E+00
			-4.00		425.69E+00
			-3.50		426.02E+00
			-3.00		426.28E+00
			-2.50		426.31E+00
			-2.00		426.30E+00
			-1.50		426.43E+00
			-1.00		426.61E+00
			-0.50		426.82E+00
			0.00		426.97E+00
			0.50		426.82E+00
			1.00		426.61E+00
			1.50		426.43E+00
			2.00		426.30E+00
			2.50		426.31E+00
			3.00		426.28E+00
			3.50		426.02E+00
			4.00		425.69E+00
			4.50		425.30E+00
			5.00		424.96E+00
			5.50		424.66E+00
			6.00		424.34E+00
			6.50		423.85E+00
			7.00		423.37E+00
			7.50		422.81E+00
			8.00		422.19E+00
			8.50		421.55E+00
			9.00		420.91E+00
			9.50		420.10E+00
			10.00		419.18E+00
			10.50		417.94E+00
			11.00		416.83E+00
			11.50		415.59E+00
			12.00		413.99E+00
			12.50		411.77E+00
			13.00		409.44E+00
			13.50		406.35E+00
			14.00		402.68E+00
			14.50		397.69E+00
			15.00		392.00E+00
			15.50		383.99E+00
			16.00		374.84E+00
			16.50		361.88E+00
			17.00		347.52E+00
			17.50		328.73E+00
			18.00		308.57E+00
			18.50		285.51E+00
			19.00		261.65E+00
			19.50		235.92E+00
			20.00		209.68E+00
			20.50		183.82E+00
			21.00		158.30E+00
			21.50		134.42E+00
			22.00		111.55E+00
			22.50		91.858E+00
			23.00		73.471E+00
			23.50		59.452E+00
			24.00		47.287E+00
			24.50		38.802E+00
			25.00		31.581E+00
			25.50		26.878E+00
			26.00		22.805E+00
			26.50		20.086E+00
			27.00		17.729E+00
			27.50		16.047E+00
			28.00		14.515E+00
			28.50		13.382E+00
			29.00		12.344E+00
			29.50		11.486E+00
			30.00		10.712E+00
			30.50		10.064E+00
			31.00		9.4446E+00
			31.50		8.9407E+00
			32.00		8.4590E+00
			32.50		8.0499E+00
			33.00		7.6550E+00
			33.50		7.3230E+00
			34.00		7.0018E+00
			34.50		6.7145E+00
			35.00		6.4387E+00
			35.50		6.1991E+00
			36.00		5.9658E+00
			36.50		5.7726E+00
			37.00		5.5879E+00
			37.50		5.4155E+00
			38.00		5.2454E+00
			38.50		5.0873E+00
			39.00		4.9310E+00
			39.50		4.7947E+00
			40.00		4.6649E+00
			40.50		4.5490E+00
			41.00		4.4362E+00
			41.50		4.3170E+00
			42.00		4.1983E+00
			42.50		4.1013E+00
			43.00		4.0054E+00
			43.50		3.9157E+00
			44.00		3.8283E+00
			44.50		3.7406E+00
			45.00		3.6542E+00
			45.50		3.5773E+00
			46.00		3.5018E+00
			46.50		3.4271E+00
			47.00		3.3525E+00
			47.50		3.2885E+00
			48.00		3.2250E+00
			48.50		3.1614E+00
			49.00		3.1032E+00
			49.50		3.0468E+00
			50.00		2.9203E+00
		END_DATA
	END_SCAN  1
	BEGIN_SCAN  2
		TASK_NAME=tba PDD Profiles
		PROGRAM=WaterTankScans
		COMMENT=Average
		MEAS_DATE=15-Mar-2022 15:54:52
		LINAC=MRIdian
		MODALITY=X
		ISOCENTER=900.00
		INPLANE_AXIS=Y
		CROSSPLANE_AXIS=X
		DEPTH_AXIS=Depth
		INPLANE_AXIS_DIR=TARGET_GUN
		CROSSPLANE_AXIS_DIR=LEFT_RIGHT
		DEPTH_AXIS_DIR=UP_DOWN
		ENERGY=6.00
		NOMINAL_DMAX=15.00
		SSD=850.00
		SCD=450.00
		WEDGE_ANGLE=0.00
		FIELD_INPLANE=42.00
		FIELD_CROSSPLANE=42.00
		FIELD_TYPE=RECTANGULAR
		GANTRY_UPRIGHT_POSITION=0
		GANTRY_ROTATION=CW
		COLL_ANGLE=0.00
		COLL_OFFSET_INPLANE=0.00
		COLL_OFFSET_CROSSPLANE=0.00
		SCAN_DEVICE=BeamScan
		SCAN_DEVICE_SETUP=BARA_LEFT_RIGHT
		ELECTROMETER=BeamScan
		RANGE_FIELD=LOW
		RANGE_REFERENCE=MEDIUM
		DETECTOR=THIMBLE_CHAMBER
		DETECTOR_RADIUS=2.40
		DETECTOR_NAME=A28MR
		DETECTOR_SN=-
		DETECTOR_CALIBRATION=588000000.00
		DETECTOR_IS_CALIBRATED=0
		DETECTOR_REFERENCE=THIMBLE_CHAMBER
		DETECTOR_REFERENCE_RADIUS=2.75
		DETECTOR_REFERENCE_NAME=A28MR
		DETECTOR_REFERENCE_SN=—
		DETECTOR_REFERENCE_IS_CALIBRATED=0
		DETECTOR_REFERENCE_CALIBRATION=303000000.00
		DETECTOR_HV=300.0
		DETECTOR_REFERENCE_HV=300.0
		DETECTOR_ORIENTATION=HORIZONTAL
		FILTER=FFF
		SCAN_SPEED_PROFILE=10.00
		SCAN_PROF_SPEED_DEP=DEPTH
		SCAN_SPEED_PDD=0.00
		SCAN_PDD_SPEED_DEP=ENERGY
		DETECTOR_TYPE=A28MR
		REF_FIELD_DEPTH=50.00
		REF_FIELD_DEFINED=ISOCENTER
		REF_FIELD_INPLANE=100.00
		REF_FIELD_CROSSPLANE=100.00
		REF_SCAN_POSITIONS=-85.00;-84.00;-83.00;-82.00;-81.00;-80.00;-79.00;-78.00;-77.00;-76.00;-75.00;-74.00;-73.00;-72.00;-71.00;-70.00;-69.00;-68.00;-67.00;-66.00;-65.00;-64.00;-63.00;-62.00;-61.00;-60.00;-59.00;-58.00;-57.00;-56.00;-55.00;-54.00;-53.00;-52.00;-51.00;-50.00;-49.00;-48.00;-47.00;-46.00;-45.00;-44.00;-43.00;-42.00;-41.00;-40.00;-39.00;-38.00;-37.00;-36.00;-35.00;-34.00;-33.00;-32.00;-31.00;-30.00;-29.00;-28.00;-27.00;-26.00;-25.00;-24.00;-23.00;-22.00;-21.00;-20.00;-19.00;-18.00;-17.00;-16.00;-15.00;-14.00;-13.00;-12.00;-11.00;-10.00;-9.00;-8.00;-7.00;-6.00;-5.00;-4.00;-3.00;-2.00;-1.00;0.00;1.00;2.00;3.00;4.00;5.00;6.00;7.00;8.00;9.00;10.00;11.00;12.00;13.00;14.00;15.00;16.00;17.00;18.00;19.00;20.00;21.00;22.00;23.00;24.00;25.00;26.00;27.00;28.00;29.00;30.00;31.00;32.00;33.00;34.00;35.00;36.00;37.00;38.00;39.00;40.00;41.00;42.00;43.00;44.00;45.00;46.00;47.00;48.00;49.00;50.00;51.00;52.00;53.00;54.00;55.00;56.00;57.00;58.00;59.00;60.00;61.00;62.00;63.00;64.00;65.00;66.00;67.00;68.00;69.00;70.00;71.00;72.00;73.00;74.00;75.00;76.00;77.00;78.00;79.00;80.00;81.00;82.00;83.00;84.00;85.00;
		REF_OVERSCAN_FACTOR=1.00
		SCAN_CURVETYPE=CROSSPLANE_PROFILE
		SCAN_DEPTH=55.00
		SCAN_OFFAXIS_INPLANE=0.00
		SCAN_OFFAXIS_CROSSPLANE=0.00
		SCAN_ANGLE=0.00
		SCAN_DIAGONAL=NOT_DIAGONAL
		SCAN_DIRECTION=POSITIVE
		MEAS_MEDIUM=WATER
		MEAS_PRESET=MEAS_CONTINUOUS_REFERENCE_SCAN
		MEAS_TIME=0.100
		MEAS_UNIT=A.U.
		INCLINATION_ANGLE=0.00
		PRESSURE=1013.25
		TEMPERATURE=20.00
		NORM_TEMPERATURE=20.00
		CORRECTION_FACTOR=1.0000
		EXPECTED_MAX_DOSE_RATE=3.00
		EPOM_DEPTH_SHIFT=0.2
		EPOM_MODE=SHIFT_PROTOCOL
		CORRECTIONS=CAX_CORR;INTERPOLATED_CORR;SYMMETRY_CORR;ADD_CURVES_CORR;
		BEGIN_DATA
			-53.00		1.5035E+00
			-52.50		1.5708E+00
			-52.00		1.5851E+00
			-51.50		1.5851E+00
			-51.00		1.6260E+00
			-50.50		1.6940E+00
			-50.00		4.7703E+00
			-49.50		4.7707E+00
			-49.00		4.8454E+00
			-48.50		4.9951E+00
			-48.00		5.1153E+00
			-47.50		5.2480E+00
			-47.00		5.3736E+00
			-46.50		5.4809E+00
			-46.00		5.5729E+00
			-45.50		5.7078E+00
			-45.00		5.8447E+00
			-44.50		5.9795E+00
			-44.00		6.1548E+00
			-43.50		6.3199E+00
			-43.00		6.4729E+00
			-42.50		6.6371E+00
			-42.00		6.8367E+00
			-41.50		6.9974E+00
			-41.00		7.2090E+00
			-40.50		7.4138E+00
			-40.00		7.5830E+00
			-39.50		7.8465E+00
			-39.00		8.0285E+00
			-38.50		8.2253E+00
			-38.00		8.5592E+00
			-37.50		8.8765E+00
			-37.00		9.0643E+00
			-36.50		9.3507E+00
			-36.00		9.6691E+00
			-35.50		10.066E+00
			-35.00		10.385E+00
			-34.50		10.782E+00
			-34.00		11.187E+00
			-33.50		11.598E+00
			-33.00		12.098E+00
			-32.50		12.666E+00
			-32.00		13.247E+00
			-31.50		13.915E+00
			-31.00		14.587E+00
			-30.50		15.409E+00
			-30.00		16.245E+00
			-29.50		17.325E+00
			-29.00		18.378E+00
			-28.50		19.817E+00
			-28.00		21.372E+00
			-27.50		23.465E+00
			-27.00		25.951E+00
			-26.50		29.395E+00
			-26.00		33.628E+00
			-25.50		39.387E+00
			-25.00		46.617E+00
			-24.50		56.064E+00
			-24.00		67.568E+00
			-23.50		81.561E+00
			-23.00		97.674E+00
			-22.50		115.59E+00
			-22.00		134.58E+00
			-21.50		154.96E+00
			-21.00		175.99E+00
			-20.50		197.44E+00
			-20.00		218.76E+00
			-19.50		239.34E+00
			-19.00		259.14E+00
			-18.50		277.01E+00
			-18.00		293.92E+00
			-17.50		307.76E+00
			-17.00		320.65E+00
			-16.50		329.90E+00
			-16.00		338.35E+00
			-15.50		344.40E+00
			-15.00		349.72E+00
			-14.50		353.54E+00
			-14.00		356.98E+00
			-13.50		359.56E+00
			-13.00		361.74E+00
			-12.50		363.54E+00
			-12.00		365.25E+00
			-11.50		366.57E+00
			-11.00		367.78E+00
			-10.50		368.70E+00
			-10.00		369.52E+00
			-9.50		370.23E+00
			-9.00		370.97E+00
			-8.50		371.68E+00
			-8.00		372.26E+00
			-7.50		372.86E+00
			-7.00		373.35E+00
			-6.50		373.64E+00
			-6.00		374.06E+00
			-5.50		374.53E+00
			-5.00		374.95E+00
			-4.50		375.25E+00
			-4.00		375.48E+00
			-3.50		375.64E+00
			-3.00		375.89E+00
			-2.50		376.20E+00
			-2.00		376.45E+00
			-1.50		376.63E+00
			-1.00		376.72E+00
			-0.50		376.63E+00
			0.00		376.54E+00
			0.50		376.63E+00
			1.00		376.72E+00
			1.50		376.63E+00
			2.00		376.45E+00
			2.50		376.20E+00
			3.00		375.89E+00
			3.50		375.64E+00
			4.00		375.48E+00
			4.50		375.25E+00
			5.00		374.95E+00
			5.50		374.53E+00
			6.00		374.06E+00
			6.50		373.64E+00
			7.00		373.35E+00
			7.50		372.86E+00
			8.00		372.26E+00
			8.50		371.68E+00
			9.00		370.97E+00
			9.50		370.23E+00
			10.00		369.52E+00
			10.50		368.70E+00
			11.00		367.78E+00
			11.50		366.57E+00
			12.00		365.25E+00
			12.50		363.54E+00
			13.00		361.74E+00
			13.50		359.56E+00
			14.00		356.98E+00
			14.50		353.54E+00
			15.00		349.72E+00
			15.50		344.40E+00
			16.00		338.35E+00
			16.50		329.90E+00
			17.00		320.65E+00
			17.50		307.76E+00
			18.00		293.92E+00
			18.50		277.01E+00
			19.00		259.14E+00
			19.50		239.34E+00
			20.00		218.76E+00
			20.50		197.44E+00
			21.00		175.99E+00
			21.50		154.96E+00
			22.00		134.58E+00
			22.50		115.59E+00
			23.00		97.674E+00
			23.50		81.561E+00
			24.00		67.568E+00
			24.50		56.064E+00
			25.00		46.617E+00
			25.50		39.387E+00
			26.00		33.628E+00
			26.50		29.395E+00
			27.00		25.951E+00
			27.50		23.465E+00
			28.00		21.372E+00
			28.50		19.817E+00
			29.00		18.378E+00
			29.50		17.325E+00
			30.00		16.245E+00
			30.50		15.409E+00
			31.00		14.587E+00
			31.50		13.915E+00
			32.00		13.247E+00
			32.50		12.666E+00
			33.00		12.098E+00
			33.50		11.598E+00
			34.00		11.187E+00
			34.50		10.782E+00
			35.00		10.385E+00
			35.50		10.066E+00
			36.00		9.6691E+00
			36.50		9.3507E+00
			37.00		9.0643E+00
			37.50		8.8765E+00
			38.00		8.5592E+00
			38.50		8.2253E+00
			39.00		8.0285E+00
			39.50		7.8465E+00
			40.00		7.5830E+00
			40.50		7.4138E+00
			41.00		7.2090E+00
			41.50		6.9974E+00
			42.00		6.8367E+00
			42.50		6.6371E+00
			43.00		6.4729E+00
			43.50		6.3199E+00
			44.00		6.1548E+00
			44.50		5.9795E+00
			45.00		5.8447E+00
			45.50		5.7078E+00
			46.00		5.5729E+00
			46.50		5.4809E+00
			47.00		5.3736E+00
			47.50		5.2480E+00
			48.00		5.1153E+00
			48.50		4.9951E+00
			49.00		4.8454E+00
			49.50		4.7707E+00
			50.00		4.7703E+00
			50.50		1.6940E+00
			51.00		1.6260E+00
			51.50		1.5851E+00
			52.00		1.5851E+00
			52.50		1.5708E+00
			53.00		1.5035E+00
		END_DATA
	END_SCAN  2
	BEGIN_SCAN  3
		TASK_NAME=tba PDD Profiles
		PROGRAM=WaterTankScans
		COMMENT=Average
		MEAS_DATE=15-Mar-2022 15:55:46
		LINAC=MRIdian
		MODALITY=X
		ISOCENTER=900.00
		INPLANE_AXIS=Y
		CROSSPLANE_AXIS=X
		DEPTH_AXIS=Depth
		INPLANE_AXIS_DIR=TARGET_GUN
		CROSSPLANE_AXIS_DIR=LEFT_RIGHT
		DEPTH_AXIS_DIR=UP_DOWN
		ENERGY=6.00
		NOMINAL_DMAX=15.00
		SSD=850.00
		SCD=450.00
		WEDGE_ANGLE=0.00
		FIELD_INPLANE=42.00
		FIELD_CROSSPLANE=42.00
		FIELD_TYPE=RECTANGULAR
		GANTRY_UPRIGHT_POSITION=0
		GANTRY_ROTATION=CW
		COLL_ANGLE=0.00
		COLL_OFFSET_INPLANE=0.00
		COLL_OFFSET_CROSSPLANE=0.00
		SCAN_DEVICE=BeamScan
		SCAN_DEVICE_SETUP=BARA_LEFT_RIGHT
		ELECTROMETER=BeamScan
		RANGE_FIELD=LOW
		RANGE_REFERENCE=MEDIUM
		DETECTOR=THIMBLE_CHAMBER
		DETECTOR_RADIUS=2.40
		DETECTOR_NAME=A28MR
		DETECTOR_SN=-
		DETECTOR_CALIBRATION=588000000.00
		DETECTOR_IS_CALIBRATED=0
		DETECTOR_REFERENCE=THIMBLE_CHAMBER
		DETECTOR_REFERENCE_RADIUS=2.75
		DETECTOR_REFERENCE_NAME=A28MR
		DETECTOR_REFERENCE_SN=—
		DETECTOR_REFERENCE_IS_CALIBRATED=0
		DETECTOR_REFERENCE_CALIBRATION=303000000.00
		DETECTOR_HV=300.0
		DETECTOR_REFERENCE_HV=300.0
		DETECTOR_ORIENTATION=HORIZONTAL
		FILTER=FFF
		SCAN_SPEED_PROFILE=10.00
		SCAN_PROF_SPEED_DEP=DEPTH
		SCAN_SPEED_PDD=0.00
		SCAN_PDD_SPEED_DEP=ENERGY
		DETECTOR_TYPE=A28MR
		REF_FIELD_DEPTH=50.00
		REF_FIELD_DEFINED=ISOCENTER
		REF_FIELD_INPLANE=100.00
		REF_FIELD_CROSSPLANE=100.00
		REF_SCAN_POSITIONS=-85.00;-84.00;-83.00;-82.00;-81.00;-80.00;-79.00;-78.00;-77.00;-76.00;-75.00;-74.00;-73.00;-72.00;-71.00;-70.00;-69.00;-68.00;-67.00;-66.00;-65.00;-64.00;-63.00;-62.00;-61.00;-60.00;-59.00;-58.00;-57.00;-56.00;-55.00;-54.00;-53.00;-52.00;-51.00;-50.00;-49.00;-48.00;-47.00;-46.00;-45.00;-44.00;-43.00;-42.00;-41.00;-40.00;-39.00;-38.00;-37.00;-36.00;-35.00;-34.00;-33.00;-32.00;-31.00;-30.00;-29.00;-28.00;-27.00;-26.00;-25.00;-24.00;-23.00;-22.00;-21.00;-20.00;-19.00;-18.00;-17.00;-16.00;-15.00;-14.00;-13.00;-12.00;-11.00;-10.00;-9.00;-8.00;-7.00;-6.00;-5.00;-4.00;-3.00;-2.00;-1.00;0.00;1.00;2.00;3.00;4.00;5.00;6.00;7.00;8.00;9.00;10.00;11.00;12.00;13.00;14.00;15.00;16.00;17.00;18.00;19.00;20.00;21.00;22.00;23.00;24.00;25.00;26.00;27.00;28.00;29.00;30.00;31.00;32.00;33.00;34.00;35.00;36.00;37.00;38.00;39.00;40.00;41.00;42.00;43.00;44.00;45.00;46.00;47.00;48.00;49.00;50.00;51.00;52.00;53.00;54.00;55.00;56.00;57.00;58.00;59.00;60.00;61.00;62.00;63.00;64.00;65.00;66.00;67.00;68.00;69.00;70.00;71.00;72.00;73.00;74.00;75.00;76.00;77.00;78.00;79.00;80.00;81.00;82.00;83.00;84.00;85.00;
		REF_OVERSCAN_FACTOR=1.00
		SCAN_CURVETYPE=CROSSPLANE_PROFILE
		SCAN_DEPTH=100.00
		SCAN_OFFAXIS_INPLANE=0.00
		SCAN_OFFAXIS_CROSSPLANE=0.00
		SCAN_ANGLE=0.00
		SCAN_DIAGONAL=NOT_DIAGONAL
		SCAN_DIRECTION=POSITIVE
		MEAS_MEDIUM=WATER
		MEAS_PRESET=MEAS_CONTINUOUS_REFERENCE_SCAN
		MEAS_TIME=0.100
		MEAS_UNIT=A.U.
		INCLINATION_ANGLE=0.00
		PRESSURE=1013.25
		TEMPERATURE=20.00
		NORM_TEMPERATURE=20.00
		CORRECTION_FACTOR=1.0000
		EXPECTED_MAX_DOSE_RATE=3.00
		EPOM_DEPTH_SHIFT=0.2
		EPOM_MODE=SHIFT_PROTOCOL
		CORRECTIONS=MODIFIED_CORR;CAX_CORR;INTERPOLATED_CORR;SYMMETRY_CORR;ADD_CURVES_CORR;
		BEGIN_DATA
			-53.50		1.8733E+00
			-53.00		1.8887E+00
			-52.50		1.9235E+00
			-52.00		1.9756E+00
			-51.50		2.0090E+00
			-51.00		2.0477E+00
			-50.50		2.1159E+00
			-50.00		5.9316E+00
			-49.50		5.9115E+00
			-49.00		6.0736E+00
			-48.50		6.2548E+00
			-48.00		6.2889E+00
			-47.50		6.3951E+00
			-47.00		6.5777E+00
			-46.50		6.7498E+00
			-46.00		6.8748E+00
			-45.50		7.0684E+00
			-45.00		7.1662E+00
			-44.50		7.2896E+00
			-44.00		7.4900E+00
			-43.50		7.6631E+00
			-43.00		7.8553E+00
			-42.50		8.0778E+00
			-42.00		8.2703E+00
			-41.50		8.4488E+00
			-41.00		8.6498E+00
			-40.50		8.8333E+00
			-40.00		9.0125E+00
			-39.50		9.2374E+00
			-39.00		9.5002E+00
			-38.50		9.7545E+00
			-38.00		10.035E+00
			-37.50		10.327E+00
			-37.00		10.702E+00
			-36.50		11.034E+00
			-36.00		11.322E+00
			-35.50		11.611E+00
			-35.00		11.966E+00
			-34.50		12.388E+00
			-34.00		12.806E+00
			-33.50		13.245E+00
