BEGIN_SCAN_DATA
	FORMAT=CC-Export V1.9                  
	FILE_CREATION_DATE=26-Jul-2022 10:35:07
	LAST_MODIFIED=26-Jul-2022 10:35:07
	BEGIN_SCAN  1
		TASK_NAME=tba PDD Profiles
		PROGRAM=WaterTankScans
		COMMENT=PDD + 5x X
		MEAS_DATE=09-Feb-2021 16:02:37
		LINAC=TRUEBEAMSN4791
		MODALITY=X
		ISOCENTER=1000.00
		INPLANE_AXIS=Y
		CROSSPLANE_AXIS=X
		DEPTH_AXIS=Depth
		INPLANE_AXIS_DIR=TARGET_GUN
		CROSSPLANE_AXIS_DIR=LEFT_RIGHT
		DEPTH_AXIS_DIR=UP_DOWN
		ENERGY=6.00
		NOMINAL_DMAX=15.00
		SSD=900.00
		SCD=450.00
		WEDGE_ANGLE=0.00
		FIELD_INPLANE=80.00
		FIELD_CROSSPLANE=80.00
		FIELD_TYPE=RECTANGULAR
		GANTRY=0.00
		GANTRY_UPRIGHT_POSITION=0
		GANTRY_ROTATION=CW
		COLL_ANGLE=0.00
		COLL_OFFSET_INPLANE=0.00
		COLL_OFFSET_CROSSPLANE=0.00
		SCAN_DEVICE=BeamScan
		SCAN_DEVICE_SETUP=BARA_LEFT_RIGHT
		ELECTROMETER=BeamScan
		RANGE_FIELD=LOW
		RANGE_REFERENCE=MEDIUM
		DETECTOR=THIMBLE_CHAMBER
		DETECTOR_SUBCODE=SEMIFLEX
		DETECTOR_RADIUS=2.40
		DETECTOR_NAME=PTW 31021 Semiflex 3D (1)
		DETECTOR_SN=142316
		DETECTOR_CALIBRATION=588000000.00
		DETECTOR_IS_CALIBRATED=1
		DETECTOR_REFERENCE=THIMBLE_CHAMBER
		DETECTOR_REFERENCE_SUBCODE=SEMIFLEX
		DETECTOR_REFERENCE_RADIUS=2.75
		DETECTOR_REFERENCE_NAME=PTW 31010 Semiflex (1)
		DETECTOR_REFERENCE_SN=â€”
		DETECTOR_REFERENCE_IS_CALIBRATED=0
		DETECTOR_REFERENCE_CALIBRATION=303000000.00
		DETECTOR_HV=400.0
		DETECTOR_REFERENCE_HV=400.0
		DETECTOR_ORIENTATION=HORIZONTAL
		FILTER=FFF
		SCAN_SPEED_PROFILE=12.50
		SCAN_PROF_SPEED_DEP=DEPTH
		SCAN_SPEED_PDD=12.50
		SCAN_PDD_SPEED_DEP=ENERGY
		DETECTOR_TYPE=T31021
		REF_FIELD_DEPTH=100.00
		REF_FIELD_DEFINED=ISOCENTER
		REF_FIELD_INPLANE=100.00
		REF_FIELD_CROSSPLANE=100.00
		REF_SCAN_POSITIONS=-85.00;-84.00;-83.00;-82.00;-81.00;-80.00;-79.00;-78.00;-77.00;-76.00;-75.00;-74.00;-73.00;-72.00;-71.00;-70.00;-69.00;-68.00;-67.00;-66.00;-65.00;-64.00;-63.00;-62.00;-61.00;-60.00;-59.00;-58.00;-57.00;-56.00;-55.00;-54.00;-53.00;-52.00;-51.00;-50.00;-49.00;-48.00;-47.00;-46.00;-45.00;-44.00;-43.00;-42.00;-41.00;-40.00;-39.00;-38.00;-37.00;-36.00;-35.00;-34.00;-33.00;-32.00;-31.00;-30.00;-29.00;-28.00;-27.00;-26.00;-25.00;-24.00;-23.00;-22.00;-21.00;-20.00;-19.00;-18.00;-17.00;-16.00;-15.00;-14.00;-13.00;-12.00;-11.00;-10.00;-9.00;-8.00;-7.00;-6.00;-5.00;-4.00;-3.00;-2.00;-1.00;0.00;1.00;2.00;3.00;4.00;5.00;6.00;7.00;8.00;9.00;10.00;11.00;12.00;13.00;14.00;15.00;16.00;17.00;18.00;19.00;20.00;21.00;22.00;23.00;24.00;25.00;26.00;27.00;28.00;29.00;30.00;31.00;32.00;33.00;34.00;35.00;36.00;37.00;38.00;39.00;40.00;41.00;42.00;43.00;44.00;45.00;46.00;47.00;48.00;49.00;50.00;51.00;52.00;53.00;54.00;55.00;56.00;57.00;58.00;59.00;60.00;61.00;62.00;63.00;64.00;65.00;66.00;67.00;68.00;69.00;70.00;71.00;72.00;73.00;74.00;75.00;76.00;77.00;78.00;79.00;80.00;81.00;82.00;83.00;84.00;85.00;
		REF_OVERSCAN_FACTOR=1.00
		SCAN_CURVETYPE=CROSSPLANE_PROFILE
		SCAN_DEPTH=15.00
		SCAN_OFFAXIS_INPLANE=0.00
		SCAN_OFFAXIS_CROSSPLANE=0.00
		SCAN_ANGLE=0.00
		SCAN_DIAGONAL=NOT_DIAGONAL
		SCAN_DIRECTION=POSITIVE
		MEAS_MEDIUM=WATER
		MEAS_PRESET=MEAS_CONTINUOUS_REFERENCE_SCAN
		MEAS_TIME=0.080
		MEAS_UNIT=A.U.
		INCLINATION_ANGLE=0.00
		PRESSURE=1013.25
		TEMPERATURE=20.00
		NORM_TEMPERATURE=20.00
		CORRECTION_FACTOR=1.0000
		EXPECTED_MAX_DOSE_RATE=3.00
		EPOM_DEPTH_SHIFT=0.2
		EPOM_MODE=SHIFT_PROTOCOL
		CORRECTIONS=SMOOTHED_CORR;SYMMETRY_CORR;INTERPOLATED_CORR;
		BEGIN_DATA
			-69.00		20.507E-03
			-68.50		20.815E-03
			-68.00		21.123E-03
			-67.50		21.388E-03
			-67.00		21.653E-03
			-66.50		21.956E-03
			-66.00		22.260E-03
			-65.50		22.491E-03
			-65.00		22.722E-03
			-64.50		23.054E-03
			-64.00		23.385E-03
			-63.50		23.857E-03
			-63.00		24.329E-03
			-62.50		24.732E-03
			-62.00		25.135E-03
			-61.50		25.508E-03
			-61.00		25.881E-03
			-60.50		26.308E-03
			-60.00		26.735E-03
			-59.50		27.103E-03
			-59.00		27.470E-03
			-58.50		28.041E-03
			-58.00		28.611E-03
			-57.50		29.163E-03
			-57.00		29.715E-03
			-56.50		30.245E-03
			-56.00		30.775E-03
			-55.50		31.466E-03
			-55.00		32.156E-03
			-54.50		32.874E-03
			-54.00		33.591E-03
			-53.50		34.352E-03
			-53.00		35.113E-03
			-52.50		36.082E-03
			-52.00		37.050E-03
			-51.50		37.976E-03
			-51.00		38.902E-03
			-50.50		39.884E-03
			-50.00		40.866E-03
			-49.50		42.091E-03
			-49.00		43.316E-03
			-48.50		44.597E-03
			-48.00		45.877E-03
			-47.50		47.839E-03
			-47.00		49.801E-03
			-46.50		52.125E-03
			-46.00		54.448E-03
			-45.50		57.460E-03
			-45.00		60.472E-03
			-44.50		64.356E-03
			-44.00		68.240E-03
			-43.50		73.804E-03
			-43.00		79.369E-03
			-42.50		88.142E-03
			-42.00		96.914E-03
			-41.50		111.76E-03
			-41.00		126.61E-03
			-40.50		154.89E-03
			-40.00		183.17E-03
			-39.50		240.23E-03
			-39.00		297.28E-03
			-38.50		387.01E-03
			-38.00		476.75E-03
			-37.50		589.75E-03
			-37.00		702.76E-03
			-36.50		825.77E-03
			-36.00		948.78E-03
			-35.50		1.0608E+00
			-35.00		1.1729E+00
			-34.50		1.2629E+00
			-34.00		1.3530E+00
			-33.50		1.4107E+00
			-33.00		1.4684E+00
			-32.50		1.4995E+00
			-32.00		1.5306E+00
			-31.50		1.5487E+00
			-31.00		1.5668E+00
			-30.50		1.5765E+00
			-30.00		1.5862E+00
			-29.50		1.5940E+00
			-29.00		1.6018E+00
			-28.50		1.6082E+00
			-28.00		1.6147E+00
			-27.50		1.6200E+00
			-27.00		1.6252E+00
			-26.50		1.6298E+00
			-26.00		1.6343E+00
			-25.50		1.6383E+00
			-25.00		1.6423E+00
			-24.50		1.6459E+00
			-24.00		1.6495E+00
			-23.50		1.6526E+00
			-23.00		1.6558E+00
			-22.50		1.6587E+00
			-22.00		1.6616E+00
			-21.50		1.6643E+00
			-21.00		1.6670E+00
			-20.50		1.6697E+00
			-20.00		1.6724E+00
			-19.50		1.6750E+00
			-19.00		1.6775E+00
			-18.50		1.6797E+00
			-18.00		1.6818E+00
			-17.50		1.6837E+00
			-17.00		1.6855E+00
			-16.50		1.6874E+00
			-16.00		1.6893E+00
			-15.50		1.6916E+00
			-15.00		1.6939E+00
			-14.50		1.6962E+00
			-14.00		1.6985E+00
			-13.50		1.7005E+00
			-13.00		1.7025E+00
			-12.50		1.7039E+00
			-12.00		1.7054E+00
			-11.50		1.7067E+00
			-11.00		1.7080E+00
			-10.50		1.7092E+00
			-10.00		1.7105E+00
			-9.50		1.7117E+00
			-9.00		1.7129E+00
			-8.50		1.7139E+00
			-8.00		1.7148E+00
			-7.50		1.7155E+00
			-7.00		1.7162E+00
			-6.50		1.7169E+00
			-6.00		1.7176E+00
			-5.50		1.7184E+00
			-5.00		1.7192E+00
			-4.50		1.7199E+00
			-4.00		1.7205E+00
			-3.50		1.7210E+00
			-3.00		1.7214E+00
			-2.50		1.7216E+00
			-2.00		1.7218E+00
			-1.50		1.7215E+00
			-1.00		1.7213E+00
			-0.50		1.7211E+00
			0.00		1.7209E+00
			0.50		1.7211E+00
			1.00		1.7213E+00
			1.50		1.7215E+00
			2.00		1.7218E+00
			2.50		1.7216E+00
			3.00		1.7214E+00
			3.50		1.7210E+00
			4.00		1.7205E+00
			4.50		1.7199E+00
			5.00		1.7192E+00
			5.50		1.7184E+00
			6.00		1.7176E+00
			6.50		1.7169E+00
			7.00		1.7162E+00
			7.50		1.7155E+00
			8.00		1.7148E+00
			8.50		1.7139E+00
			9.00		1.7129E+00
			9.50		1.7117E+00
			10.00		1.7105E+00
			10.50		1.7092E+00
			11.00		1.7080E+00
			11.50		1.7067E+00
			12.00		1.7054E+00
			12.50		1.7039E+00
			13.00		1.7025E+00
			13.50		1.7005E+00
			14.00		1.6985E+00
			14.50		1.6962E+00
			15.00		1.6939E+00
			15.50		1.6916E+00
			16.00		1.6893E+00
			16.50		1.6874E+00
			17.00		1.6855E+00
			17.50		1.6837E+00
			18.00		1.6818E+00
			18.50		1.6797E+00
			19.00		1.6775E+00
			19.50		1.6750E+00
			20.00		1.6724E+00
			20.50		1.6697E+00
			21.00		1.6670E+00
			21.50		1.6643E+00
			22.00		1.6616E+00
			22.50		1.6587E+00
			23.00		1.6558E+00
			23.50		1.6526E+00
			24.00		1.6495E+00
			24.50		1.6459E+00
			25.00		1.6423E+00
			25.50		1.6383E+00
			26.00		1.6343E+00
			26.50		1.6298E+00
			27.00		1.6252E+00
			27.50		1.6200E+00
			28.00		1.6147E+00
			28.50		1.6082E+00
			29.00		1.6018E+00
			29.50		1.5940E+00
			30.00		1.5862E+00
			30.50		1.5765E+00
			31.00		1.5668E+00
			31.50		1.5487E+00
			32.00		1.5306E+00
			32.50		1.4995E+00
			33.00		1.4684E+00
			33.50		1.4107E+00
			34.00		1.3530E+00
			34.50		1.2629E+00
			35.00		1.1729E+00
			35.50		1.0608E+00
			36.00		948.78E-03
			36.50		825.77E-03
			37.00		702.76E-03
			37.50		589.75E-03
			38.00		476.75E-03
			38.50		387.01E-03
			39.00		297.28E-03
			39.50		240.23E-03
			40.00		183.17E-03
			40.50		154.89E-03
			41.00		126.61E-03
			41.50		111.76E-03
			42.00		96.914E-03
			42.50		88.142E-03
			43.00		79.369E-03
			43.50		73.804E-03
			44.00		68.240E-03
			44.50		64.356E-03
			45.00		60.472E-03
			45.50		57.460E-03
			46.00		54.448E-03
			46.50		52.125E-03
			47.00		49.801E-03
			47.50		47.839E-03
			48.00		45.877E-03
			48.50		44.597E-03
			49.00		43.316E-03
			49.50		42.091E-03
			50.00		40.866E-03
			50.50		39.884E-03
			51.00		38.902E-03
			51.50		37.976E-03
			52.00		37.050E-03
			52.50		36.082E-03
			53.00		35.113E-03
			53.50		34.352E-03
			54.00		33.591E-03
			54.50		32.874E-03
			55.00		32.156E-03
			55.50		31.466E-03
			56.00		30.775E-03
			56.50		30.245E-03
			57.00		29.715E-03
			57.50		29.163E-03
			58.00		28.611E-03
			58.50		28.041E-03
			59.00		27.470E-03
			59.50		27.103E-03
			60.00		26.735E-03
			60.50		26.308E-03
			61.00		25.881E-03
			61.50		25.508E-03
			62.00		25.135E-03
			62.50		24.732E-03
			63.00		24.329E-03
			63.50		23.857E-03
			64.00		23.385E-03
			64.50		23.054E-03
			65.00		22.722E-03
			65.50		22.491E-03
			66.00		22.260E-03
			66.50		21.956E-03
			67.00		21.653E-03
			67.50		21.388E-03
			68.00		21.123E-03
			68.50		20.815E-03
			69.00		20.507E-03
		END_DATA
	END_SCAN  1
	BEGIN_SCAN  2
		TASK_NAME=tba PDD Profiles
		PROGRAM=WaterTankScans
		COMMENT=PDD + 5x X
		MEAS_DATE=09-Feb-2021 16:02:53
		LINAC=TRUEBEAMSN4791
		MODALITY=X
		ISOCENTER=1000.00
		INPLANE_AXIS=Y
		CROSSPLANE_AXIS=X
		DEPTH_AXIS=Depth
		INPLANE_AXIS_DIR=TARGET_GUN
		CROSSPLANE_AXIS_DIR=LEFT_RIGHT
		DEPTH_AXIS_DIR=UP_DOWN
		ENERGY=6.00
		NOMINAL_DMAX=15.00
		SSD=900.00
		SCD=450.00
		WEDGE_ANGLE=0.00
		FIELD_INPLANE=80.00
		FIELD_CROSSPLANE=80.00
		FIELD_TYPE=RECTANGULAR
		GANTRY=0.00
		GANTRY_UPRIGHT_POSITION=0
		GANTRY_ROTATION=CW
		COLL_ANGLE=0.00
		COLL_OFFSET_INPLANE=0.00
		COLL_OFFSET_CROSSPLANE=0.00
		SCAN_DEVICE=BeamScan
		SCAN_DEVICE_SETUP=BARA_LEFT_RIGHT
		ELECTROMETER=BeamScan
		RANGE_FIELD=LOW
		RANGE_REFERENCE=MEDIUM
		DETECTOR=THIMBLE_CHAMBER
		DETECTOR_SUBCODE=SEMIFLEX
		DETECTOR_RADIUS=2.40
		DETECTOR_NAME=PTW 31021 Semiflex 3D (1)
		DETECTOR_SN=142316
		DETECTOR_CALIBRATION=588000000.00
		DETECTOR_IS_CALIBRATED=1
		DETECTOR_REFERENCE=THIMBLE_CHAMBER
		DETECTOR_REFERENCE_SUBCODE=SEMIFLEX
		DETECTOR_REFERENCE_RADIUS=2.75
		DETECTOR_REFERENCE_NAME=PTW 31010 Semiflex (1)
		DETECTOR_REFERENCE_SN=â€”
		DETECTOR_REFERENCE_IS_CALIBRATED=0
		DETECTOR_REFERENCE_CALIBRATION=303000000.00
		DETECTOR_HV=400.0
		DETECTOR_REFERENCE_HV=400.0
		DETECTOR_ORIENTATION=HORIZONTAL
		FILTER=FFF
		SCAN_SPEED_PROFILE=12.50
		SCAN_PROF_SPEED_DEP=DEPTH
		SCAN_SPEED_PDD=12.50
		SCAN_PDD_SPEED_DEP=ENERGY
		DETECTOR_TYPE=T31021
		REF_FIELD_DEPTH=100.00
		REF_FIELD_DEFINED=ISOCENTER
		REF_FIELD_INPLANE=100.00
		REF_FIELD_CROSSPLANE=100.00
		REF_SCAN_POSITIONS=-85.00;-84.00;-83.00;-82.00;-81.00;-80.00;-79.00;-78.00;-77.00;-76.00;-75.00;-74.00;-73.00;-72.00;-71.00;-70.00;-69.00;-68.00;-67.00;-66.00;-65.00;-64.00;-63.00;-62.00;-61.00;-60.00;-59.00;-58.00;-57.00;-56.00;-55.00;-54.00;-53.00;-52.00;-51.00;-50.00;-49.00;-48.00;-47.00;-46.00;-45.00;-44.00;-43.00;-42.00;-41.00;-40.00;-39.00;-38.00;-37.00;-36.00;-35.00;-34.00;-33.00;-32.00;-31.00;-30.00;-29.00;-28.00;-27.00;-26.00;-25.00;-24.00;-23.00;-22.00;-21.00;-20.00;-19.00;-18.00;-17.00;-16.00;-15.00;-14.00;-13.00;-12.00;-11.00;-10.00;-9.00;-8.00;-7.00;-6.00;-5.00;-4.00;-3.00;-2.00;-1.00;0.00;1.00;2.00;3.00;4.00;5.00;6.00;7.00;8.00;9.00;10.00;11.00;12.00;13.00;14.00;15.00;16.00;17.00;18.00;19.00;20.00;21.00;22.00;23.00;24.00;25.00;26.00;27.00;28.00;29.00;30.00;31.00;32.00;33.00;34.00;35.00;36.00;37.00;38.00;39.00;40.00;41.00;42.00;43.00;44.00;45.00;46.00;47.00;48.00;49.00;50.00;51.00;52.00;53.00;54.00;55.00;56.00;57.00;58.00;59.00;60.00;61.00;62.00;63.00;64.00;65.00;66.00;67.00;68.00;69.00;70.00;71.00;72.00;73.00;74.00;75.00;76.00;77.00;78.00;79.00;80.00;81.00;82.00;83.00;84.00;85.00;
		REF_OVERSCAN_FACTOR=1.00
		SCAN_CURVETYPE=CROSSPLANE_PROFILE
		SCAN_DEPTH=50.00
		SCAN_OFFAXIS_INPLANE=0.00
		SCAN_OFFAXIS_CROSSPLANE=0.00
		SCAN_ANGLE=0.00
		SCAN_DIAGONAL=NOT_DIAGONAL
		SCAN_DIRECTION=NEGATIVE
		MEAS_MEDIUM=WATER
		MEAS_PRESET=MEAS_CONTINUOUS_REFERENCE_SCAN
		MEAS_TIME=0.080
		MEAS_UNIT=A.U.
		INCLINATION_ANGLE=0.00
		PRESSURE=1013.25
		TEMPERATURE=20.00
		NORM_TEMPERATURE=20.00
		CORRECTION_FACTOR=1.0000
		EXPECTED_MAX_DOSE_RATE=3.00
		EPOM_DEPTH_SHIFT=0.2
		EPOM_MODE=SHIFT_PROTOCOL
		CORRECTIONS=SMOOTHED_CORR;SYMMETRY_CORR;INTERPOLATED_CORR;
		BEGIN_DATA
			-72.00		27.151E-03
			-71.50		27.656E-03
			-71.00		28.162E-03
			-70.50		28.563E-03
			-70.00		28.963E-03
			-69.50		29.382E-03
			-69.00		29.801E-03
			-68.50		30.384E-03
			-68.00		30.967E-03
			-67.50		31.547E-03
			-67.00		32.127E-03
			-66.50		32.587E-03
			-66.00		33.048E-03
			-65.50		33.547E-03
			-65.00		34.046E-03
			-64.50		34.767E-03
			-64.00		35.487E-03
			-63.50		36.129E-03
			-63.00		36.771E-03
			-62.50		37.405E-03
			-62.00		38.040E-03
			-61.50		38.906E-03
			-61.00		39.772E-03
			-60.50		40.657E-03
			-60.00		41.543E-03
			-59.50		42.216E-03
			-59.00		42.888E-03
			-58.50		43.878E-03
			-58.00		44.868E-03
			-57.50		45.832E-03
			-57.00		46.797E-03
			-56.50		47.938E-03
			-56.00		49.080E-03
			-55.50		50.226E-03
			-55.00		51.371E-03
			-54.50		52.713E-03
			-54.00		54.055E-03
			-53.50		55.315E-03
			-53.00		56.575E-03
			-52.50		58.063E-03
			-52.00		59.551E-03
			-51.50		60.988E-03
			-51.00		62.424E-03
			-50.50		64.474E-03
			-50.00		66.523E-03
			-49.50		68.686E-03
			-49.00		70.848E-03
			-48.50		73.251E-03
			-48.00		75.654E-03
			-47.50		78.873E-03
			-47.00		82.091E-03
			-46.50		85.851E-03
			-46.00		89.610E-03
			-45.50		94.518E-03
			-45.00		99.427E-03
			-44.50		106.02E-03
			-44.00		112.61E-03
			-43.50		122.62E-03
			-43.00		132.62E-03
			-42.50		149.17E-03
			-42.00		165.72E-03
			-41.50		196.81E-03
			-41.00		227.89E-03
			-40.50		282.84E-03
			-40.00		337.79E-03
			-39.50		414.22E-03
			-39.00		490.65E-03
			-38.50		580.73E-03
			-38.00		670.81E-03
			-37.50		763.07E-03
			-37.00		855.33E-03
			-36.50		936.91E-03
			-36.00		1.0185E+00
			-35.50		1.0791E+00
			-35.00		1.1396E+00
			-34.50		1.1767E+00
			-34.00		1.2138E+00
			-33.50		1.2345E+00
			-33.00		1.2552E+00
			-32.50		1.2677E+00
			-32.00		1.2801E+00
			-31.50		1.2895E+00
			-31.00		1.2989E+00
			-30.50		1.3054E+00
			-30.00		1.3119E+00
			-29.50		1.3177E+00
			-29.00		1.3235E+00
			-28.50		1.3286E+00
			-28.00		1.3336E+00
			-27.50		1.3380E+00
			-27.00		1.3424E+00
			-26.50		1.3464E+00
			-26.00		1.3504E+00
			-25.50		1.3540E+00
			-25.00		1.3575E+00
			-24.50		1.3605E+00
			-24.00		1.3635E+00
			-23.50		1.3662E+00
			-23.00		1.3688E+00
			-22.50		1.3715E+00
			-22.00		1.3742E+00
			-21.50		1.3770E+00
			-21.00		1.3799E+00
			-20.50		1.3826E+00
			-20.00		1.3853E+00
			-19.50		1.3878E+00
			-19.00		1.3903E+00
			-18.50		1.3925E+00
			-18.00		1.3946E+00
			-17.50		1.3965E+00
			-17.00		1.3983E+00
			-16.50		1.4000E+00
			-16.00		1.4016E+00
			-15.50		1.4032E+00
			-15.00		1.4049E+00
			-14.50		1.4066E+00
			-14.00		1.4083E+00
			-13.50		1.4101E+00
			-13.00		1.4118E+00
			-12.50		1.4133E+00
			-12.00		1.4148E+00
			-11.50		1.4161E+00
			-11.00		1.4174E+00
			-10.50		1.4184E+00
			-10.00		1.4195E+00
			-9.50		1.4205E+00
			-9.00		1.4216E+00
			-8.50		1.4225E+00
			-8.00		1.4235E+00
			-7.50		1.4245E+00
			-7.00		1.4255E+00
			-6.50		1.4266E+00
			-6.00		1.4276E+00
			-5.50		1.4286E+00
			-5.00		1.4295E+00
			-4.50		1.4303E+00
			-4.00		1.4311E+00
			-3.50		1.4315E+00
			-3.00		1.4319E+00
			-2.50		1.4318E+00
			-2.00		1.4316E+00
			-1.50		1.4311E+00
			-1.00		1.4306E+00
			-0.50		1.4304E+00
			0.00		1.4301E+00
			0.50		1.4304E+00
			1.00		1.4306E+00
			1.50		1.4311E+00
			2.00		1.4316E+00
			2.50		1.4318E+00
			3.00		1.4319E+00
			3.50		1.4315E+00
			4.00		1.4311E+00
			4.50		1.4303E+00
			5.00		1.4295E+00
			5.50		1.4286E+00
			6.00		1.4276E+00
			6.50		1.4266E+00
			7.00		1.4255E+00
			7.50		1.4245E+00
			8.00		1.4235E+00
			8.50		1.4225E+00
			9.00		1.4216E+00
			9.50		1.4205E+00
			10.00		1.4195E+00
			10.50		1.4184E+00
			11.00		1.4174E+00
			11.50		1.4161E+00
			12.00		1.4148E+00
			12.50		1.4133E+00
			13.00		1.4118E+00
			13.50		1.4101E+00
			14.00		1.4083E+00
			14.50		1.4066E+00
			15.00		1.4049E+00
			15.50		1.4032E+00
			16.00		1.4016E+00
			16.50		1.4000E+00
			17.00		1.3983E+00
			17.50		1.3965E+00
			18.00		1.3946E+00
			18.50		1.3925E+00
			19.00		1.3903E+00
			19.50		1.3878E+00
			20.00		1.3853E+00
			20.50		1.3826E+00
			21.00		1.3799E+00
			21.50		1.3770E+00
			22.00		1.3742E+00
			22.50		1.3715E+00
			23.00		1.3688E+00
			23.50		1.3662E+00
			24.00		1.3635E+00
			24.50		1.3605E+00
			25.00		1.3575E+00
			25.50		1.3540E+00
			26.00		1.3504E+00
			26.50		1.3464E+00
			27.00		1.3424E+00
			27.50		1.3380E+00
			28.00		1.3336E+00
			28.50		1.3286E+00
			29.00		1.3235E+00
			29.50		1.3177E+00
			30.00		1.3119E+00
			30.50		1.3054E+00
			31.00		1.2989E+00
			31.50		1.2895E+00
			32.00		1.2801E+00
			32.50		1.2677E+00
			33.00		1.2552E+00
			33.50		1.2345E+00
			34.00		1.2138E+00
			34.50		1.1767E+00
			35.00		1.1396E+00
			35.50		1.0791E+00
			36.00		1.0185E+00
			36.50		936.91E-03
			37.00		855.33E-03
			37.50		763.07E-03
			38.00		670.81E-03
			38.50		580.73E-03
			39.00		490.65E-03
			39.50		414.22E-03
			40.00		337.79E-03
			40.50		282.84E-03
			41.00		227.89E-03
			41.50		196.81E-03
			42.00		165.72E-03
			42.50		149.17E-03
			43.00		132.62E-03
			43.50		122.62E-03
			44.00		112.61E-03
			44.50		106.02E-03
			45.00		99.427E-03
			45.50		94.518E-03
			46.00		89.610E-03
			46.50		85.851E-03
			47.00		82.091E-03
			47.50		78.873E-03
			48.00		75.654E-03
			48.50		73.251E-03
			49.00		70.848E-03
			49.50		68.686E-03
			50.00		66.523E-03
			50.50		64.474E-03
			51.00		62.424E-03
			51.50		60.988E-03
			52.00		59.551E-03
			52.50		58.063E-03
			53.00		56.575E-03
			53.50		55.315E-03
			54.00		54.055E-03
			54.50		52.713E-03
			55.00		51.371E-03
			55.50		50.226E-03
			56.00		49.080E-03
			56.50		47.938E-03
			57.00		46.797E-03
			57.50		45.832E-03
			58.00		44.868E-03
			58.50		43.878E-03
			59.00		42.888E-03
			59.50		42.216E-03
			60.00		41.543E-03
			60.50		40.657E-03
			61.00		39.772E-03
			61.50		38.906E-03
			62.00		38.040E-03
			62.50		37.405E-03
			63.00		36.771E-03
			63.50		36.129E-03
			64.00		35.487E-03
			64.50		34.767E-03
			65.00		34.046E-03
			65.50		33.547E-03
			66.00		33.048E-03
			66.50		32.587E-03
			67.00		32.127E-03
			67.50		31.547E-03
			68.00		30.967E-03
			68.50		30.384E-03
			69.00		29.801E-03
			69.50		29.382E-03
			70.00		28.963E-03
			70.50		28.563E-03
			71.00		28.162E-03
			71.50		27.656E-03
			72.00		27.151E-03
		END_DATA
	END_SCAN  2
	BEGIN_SCAN  3
		TASK_NAME=tba PDD Profiles
		PROGRAM=WaterTankScans
		COMMENT=PDD + 5x X
		MEAS_DATE=09-Feb-2021 16:03:08
		LINAC=TRUEBEAMSN4791
		MODALITY=X
		ISOCENTER=1000.00
		INPLANE_AXIS=Y
		CROSSPLANE_AXIS=X
		DEPTH_AXIS=Depth
		INPLANE_AXIS_DIR=TARGET_GUN
		CROSSPLANE_AXIS_DIR=LEFT_RIGHT
		DEPTH_AXIS_DIR=UP_DOWN
		ENERGY=6.00
		NOMINAL_DMAX=15.00
		SSD=900.00
		SCD=450.00
		WEDGE_ANGLE=0.00
		FIELD_INPLANE=80.00
		FIELD_CROSSPLANE=80.00
		FIELD_TYPE=RECTANGULAR
		GANTRY=0.00
		GANTRY_UPRIGHT_POSITION=0
		GANTRY_ROTATION=CW
		COLL_ANGLE=0.00
		COLL_OFFSET_INPLANE=0.00
		COLL_OFFSET_CROSSPLANE=0.00
		SCAN_DEVICE=BeamScan
		SCAN_DEVICE_SETUP=BARA_LEFT_RIGHT
		ELECTROMETER=BeamScan
		RANGE_FIELD=LOW
		RANGE_REFERENCE=MEDIUM
		DETECTOR=THIMBLE_CHAMBER
		DETECTOR_SUBCODE=SEMIFLEX
		DETECTOR_RADIUS=2.40
		DETECTOR_NAME=PTW 31021 Semiflex 3D (1)
		DETECTOR_SN=142316
		DETECTOR_CALIBRATION=588000000.00
		DETECTOR_IS_CALIBRATED=1
		DETECTOR_REFERENCE=THIMBLE_CHAMBER
		DETECTOR_REFERENCE_SUBCODE=SEMIFLEX
		DETECTOR_REFERENCE_RADIUS=2.75
		DETECTOR_REFERENCE_NAME=PTW 31010 Semiflex (1)
		DETECTOR_REFERENCE_SN=â€”
		DETECTOR_REFERENCE_IS_CALIBRATED=0
		DETECTOR_REFERENCE_CALIBRATION=303000000.00
		DETECTOR_HV=400.0
