BEGIN_SCAN_DATA
	FORMAT=CC-Export V1.9                  
	FILE_CREATION_DATE=26-Jul-2022 10:35:22
	LAST_MODIFIED=26-Jul-2022 10:35:22
	BEGIN_SCAN  1
		TASK_NAME=tba PDD Profiles
		PROGRAM=WaterTankScans
		COMMENT=PDD + 5x X
		MEAS_DATE=09-Feb-2021 16:07:32
		LINAC=TRUEBEAMSN4791
		MODALITY=X
		ISOCENTER=1000.00
		INPLANE_AXIS=Y
		CROSSPLANE_AXIS=X
		DEPTH_AXIS=Depth
		INPLANE_AXIS_DIR=TARGET_GUN
		CROSSPLANE_AXIS_DIR=LEFT_RIGHT
		DEPTH_AXIS_DIR=UP_DOWN
		ENERGY=6.00
		NOMINAL_DMAX=15.00
		SSD=900.00
		SCD=450.00
		WEDGE_ANGLE=0.00
		FIELD_INPLANE=100.00
		FIELD_CROSSPLANE=100.00
		FIELD_TYPE=RECTANGULAR
		GANTRY=0.00
		GANTRY_UPRIGHT_POSITION=0
		GANTRY_ROTATION=CW
		COLL_ANGLE=0.00
		COLL_OFFSET_INPLANE=0.00
		COLL_OFFSET_CROSSPLANE=0.00
		SCAN_DEVICE=BeamScan
		SCAN_DEVICE_SETUP=BARA_LEFT_RIGHT
		ELECTROMETER=BeamScan
		RANGE_FIELD=LOW
		RANGE_REFERENCE=MEDIUM
		DETECTOR=THIMBLE_CHAMBER
		DETECTOR_SUBCODE=SEMIFLEX
		DETECTOR_RADIUS=2.40
		DETECTOR_NAME=PTW 31021 Semiflex 3D (1)
		DETECTOR_SN=142316
		DETECTOR_CALIBRATION=588000000.00
		DETECTOR_IS_CALIBRATED=1
		DETECTOR_REFERENCE=THIMBLE_CHAMBER
		DETECTOR_REFERENCE_SUBCODE=SEMIFLEX
		DETECTOR_REFERENCE_RADIUS=2.75
		DETECTOR_REFERENCE_NAME=PTW 31010 Semiflex (1)
		DETECTOR_REFERENCE_SN=Ã¢â‚¬â€
		DETECTOR_REFERENCE_IS_CALIBRATED=0
		DETECTOR_REFERENCE_CALIBRATION=303000000.00
		DETECTOR_HV=400.0
		DETECTOR_REFERENCE_HV=400.0
		DETECTOR_ORIENTATION=HORIZONTAL
		FILTER=FFF
		SCAN_SPEED_PROFILE=12.50
		SCAN_PROF_SPEED_DEP=DEPTH
		SCAN_SPEED_PDD=12.50
		SCAN_PDD_SPEED_DEP=ENERGY
		DETECTOR_TYPE=T31021
		REF_FIELD_DEPTH=100.00
		REF_FIELD_DEFINED=ISOCENTER
		REF_FIELD_INPLANE=100.00
		REF_FIELD_CROSSPLANE=100.00
		REF_SCAN_POSITIONS=-85.00;-84.00;-83.00;-82.00;-81.00;-80.00;-79.00;-78.00;-77.00;-76.00;-75.00;-74.00;-73.00;-72.00;-71.00;-70.00;-69.00;-68.00;-67.00;-66.00;-65.00;-64.00;-63.00;-62.00;-61.00;-60.00;-59.00;-58.00;-57.00;-56.00;-55.00;-54.00;-53.00;-52.00;-51.00;-50.00;-49.00;-48.00;-47.00;-46.00;-45.00;-44.00;-43.00;-42.00;-41.00;-40.00;-39.00;-38.00;-37.00;-36.00;-35.00;-34.00;-33.00;-32.00;-31.00;-30.00;-29.00;-28.00;-27.00;-26.00;-25.00;-24.00;-23.00;-22.00;-21.00;-20.00;-19.00;-18.00;-17.00;-16.00;-15.00;-14.00;-13.00;-12.00;-11.00;-10.00;-9.00;-8.00;-7.00;-6.00;-5.00;-4.00;-3.00;-2.00;-1.00;0.00;1.00;2.00;3.00;4.00;5.00;6.00;7.00;8.00;9.00;10.00;11.00;12.00;13.00;14.00;15.00;16.00;17.00;18.00;19.00;20.00;21.00;22.00;23.00;24.00;25.00;26.00;27.00;28.00;29.00;30.00;31.00;32.00;33.00;34.00;35.00;36.00;37.00;38.00;39.00;40.00;41.00;42.00;43.00;44.00;45.00;46.00;47.00;48.00;49.00;50.00;51.00;52.00;53.00;54.00;55.00;56.00;57.00;58.00;59.00;60.00;61.00;62.00;63.00;64.00;65.00;66.00;67.00;68.00;69.00;70.00;71.00;72.00;73.00;74.00;75.00;76.00;77.00;78.00;79.00;80.00;81.00;82.00;83.00;84.00;85.00;
		REF_OVERSCAN_FACTOR=1.00
		SCAN_CURVETYPE=CROSSPLANE_PROFILE
		SCAN_DEPTH=15.00
		SCAN_OFFAXIS_INPLANE=0.00
		SCAN_OFFAXIS_CROSSPLANE=0.00
		SCAN_ANGLE=0.00
		SCAN_DIAGONAL=NOT_DIAGONAL
		SCAN_DIRECTION=POSITIVE
		MEAS_MEDIUM=WATER
		MEAS_PRESET=MEAS_CONTINUOUS_REFERENCE_SCAN
		MEAS_TIME=0.080
		MEAS_UNIT=A.U.
		INCLINATION_ANGLE=0.00
		PRESSURE=1013.25
		TEMPERATURE=20.00
		NORM_TEMPERATURE=20.00
		CORRECTION_FACTOR=1.0000
		EXPECTED_MAX_DOSE_RATE=3.00
		EPOM_DEPTH_SHIFT=0.2
		EPOM_MODE=SHIFT_PROTOCOL
		CORRECTIONS=SMOOTHED_CORR;SYMMETRY_CORR;INTERPOLATED_CORR;
		BEGIN_DATA
			-78.00		26.902E-03
			-77.50		27.345E-03
			-77.00		27.788E-03
			-76.50		28.134E-03
			-76.00		28.480E-03
			-75.50		28.873E-03
			-75.00		29.266E-03
			-74.50		29.642E-03
			-74.00		30.018E-03
			-73.50		30.414E-03
			-73.00		30.811E-03
			-72.50		31.228E-03
			-72.00		31.645E-03
			-71.50		32.074E-03
			-71.00		32.504E-03
			-70.50		33.037E-03
			-70.00		33.569E-03
			-69.50		34.144E-03
			-69.00		34.718E-03
			-68.50		35.191E-03
			-68.00		35.665E-03
			-67.50		36.254E-03
			-67.00		36.843E-03
			-66.50		37.427E-03
			-66.00		38.012E-03
			-65.50		38.824E-03
			-65.00		39.636E-03
			-64.50		40.467E-03
			-64.00		41.298E-03
			-63.50		42.158E-03
			-63.00		43.018E-03
			-62.50		43.788E-03
			-62.00		44.558E-03
			-61.50		45.647E-03
			-61.00		46.736E-03
			-60.50		47.791E-03
			-60.00		48.847E-03
			-59.50		50.025E-03
			-59.00		51.202E-03
			-58.50		52.460E-03
			-58.00		53.717E-03
			-57.50		55.351E-03
			-57.00		56.985E-03
			-56.50		59.241E-03
			-56.00		61.497E-03
			-55.50		64.053E-03
			-55.00		66.610E-03
			-54.50		69.969E-03
			-54.00		73.328E-03
			-53.50		77.772E-03
			-53.00		82.217E-03
			-52.50		88.642E-03
			-52.00		95.067E-03
			-51.50		105.05E-03
			-51.00		115.04E-03
			-50.50		132.02E-03
			-50.00		149.00E-03
			-49.50		183.28E-03
			-49.00		217.57E-03
			-48.50		283.43E-03
			-48.00		349.30E-03
			-47.50		446.87E-03
			-47.00		544.43E-03
			-46.50		663.26E-03
			-46.00		782.09E-03
			-45.50		907.79E-03
			-45.00		1.0335E+00
			-44.50		1.1449E+00
			-44.00		1.2564E+00
			-43.50		1.3410E+00
			-43.00		1.4257E+00
			-42.50		1.4781E+00
			-42.00		1.5305E+00
			-41.50		1.5593E+00
			-41.00		1.5880E+00
			-40.50		1.6049E+00
			-40.00		1.6219E+00
			-39.50		1.6321E+00
			-39.00		1.6422E+00
			-38.50		1.6507E+00
			-38.00		1.6591E+00
			-37.50		1.6653E+00
			-37.00		1.6716E+00
			-36.50		1.6772E+00
			-36.00		1.6828E+00
			-35.50		1.6880E+00
			-35.00		1.6932E+00
			-34.50		1.6981E+00
			-34.00		1.7029E+00
			-33.50		1.7071E+00
			-33.00		1.7114E+00
			-32.50		1.7153E+00
			-32.00		1.7192E+00
			-31.50		1.7229E+00
			-31.00		1.7265E+00
			-30.50		1.7299E+00
			-30.00		1.7333E+00
			-29.50		1.7364E+00
			-29.00		1.7396E+00
			-28.50		1.7428E+00
			-28.00		1.7460E+00
			-27.50		1.7493E+00
			-27.00		1.7525E+00
			-26.50		1.7557E+00
			-26.00		1.7588E+00
			-25.50		1.7618E+00
			-25.00		1.7648E+00
			-24.50		1.7677E+00
			-24.00		1.7706E+00
			-23.50		1.7732E+00
			-23.00		1.7759E+00
			-22.50		1.7781E+00
			-22.00		1.7803E+00
			-21.50		1.7826E+00
			-21.00		1.7850E+00
			-20.50		1.7877E+00
			-20.00		1.7904E+00
			-19.50		1.7930E+00
			-19.00		1.7956E+00
			-18.50		1.7977E+00
			-18.00		1.7999E+00
			-17.50		1.8019E+00
			-17.00		1.8038E+00
			-16.50		1.8059E+00
			-16.00		1.8079E+00
			-15.50		1.8097E+00
			-15.00		1.8116E+00
			-14.50		1.8133E+00
			-14.00		1.8149E+00
			-13.50		1.8164E+00
			-13.00		1.8180E+00
			-12.50		1.8197E+00
			-12.00		1.8214E+00
			-11.50		1.8231E+00
			-11.00		1.8247E+00
			-10.50		1.8257E+00
			-10.00		1.8268E+00
			-9.50		1.8275E+00
			-9.00		1.8281E+00
			-8.50		1.8287E+00
			-8.00		1.8293E+00
			-7.50		1.8300E+00
			-7.00		1.8308E+00
			-6.50		1.8317E+00
			-6.00		1.8325E+00
			-5.50		1.8334E+00
			-5.00		1.8343E+00
			-4.50		1.8352E+00
			-4.00		1.8361E+00
			-3.50		1.8366E+00
			-3.00		1.8371E+00
			-2.50		1.8372E+00
			-2.00		1.8373E+00
			-1.50		1.8373E+00
			-1.00		1.8373E+00
			-0.50		1.8373E+00
			0.00		1.8374E+00
			0.50		1.8373E+00
			1.00		1.8373E+00
			1.50		1.8373E+00
			2.00		1.8373E+00
			2.50		1.8372E+00
			3.00		1.8371E+00
			3.50		1.8366E+00
			4.00		1.8361E+00
			4.50		1.8352E+00
			5.00		1.8343E+00
			5.50		1.8334E+00
			6.00		1.8325E+00
			6.50		1.8317E+00
			7.00		1.8308E+00
			7.50		1.8300E+00
			8.00		1.8293E+00
			8.50		1.8287E+00
			9.00		1.8281E+00
			9.50		1.8275E+00
			10.00		1.8268E+00
			10.50		1.8257E+00
			11.00		1.8247E+00
			11.50		1.8231E+00
			12.00		1.8214E+00
			12.50		1.8197E+00
			13.00		1.8180E+00
			13.50		1.8164E+00
			14.00		1.8149E+00
			14.50		1.8133E+00
			15.00		1.8116E+00
			15.50		1.8097E+00
			16.00		1.8079E+00
			16.50		1.8059E+00
			17.00		1.8038E+00
			17.50		1.8019E+00
			18.00		1.7999E+00
			18.50		1.7977E+00
			19.00		1.7956E+00
			19.50		1.7930E+00
			20.00		1.7904E+00
			20.50		1.7877E+00
			21.00		1.7850E+00
			21.50		1.7826E+00
			22.00		1.7803E+00
			22.50		1.7781E+00
			23.00		1.7759E+00
			23.50		1.7732E+00
			24.00		1.7706E+00
			24.50		1.7677E+00
			25.00		1.7648E+00
			25.50		1.7618E+00
			26.00		1.7588E+00
			26.50		1.7557E+00
			27.00		1.7525E+00
			27.50		1.7493E+00
			28.00		1.7460E+00
			28.50		1.7428E+00
			29.00		1.7396E+00
			29.50		1.7364E+00
			30.00		1.7333E+00
			30.50		1.7299E+00
			31.00		1.7265E+00
			31.50		1.7229E+00
			32.00		1.7192E+00
			32.50		1.7153E+00
			33.00		1.7114E+00
			33.50		1.7071E+00
			34.00		1.7029E+00
			34.50		1.6981E+00
			35.00		1.6932E+00
			35.50		1.6880E+00
			36.00		1.6828E+00
			36.50		1.6772E+00
			37.00		1.6716E+00
			37.50		1.6653E+00
			38.00		1.6591E+00
			38.50		1.6507E+00
			39.00		1.6422E+00
			39.50		1.6321E+00
			40.00		1.6219E+00
			40.50		1.6049E+00
			41.00		1.5880E+00
			41.50		1.5593E+00
			42.00		1.5305E+00
			42.50		1.4781E+00
			43.00		1.4257E+00
			43.50		1.3410E+00
			44.00		1.2564E+00
			44.50		1.1449E+00
			45.00		1.0335E+00
			45.50		907.79E-03
			46.00		782.09E-03
			46.50		663.26E-03
			47.00		544.43E-03
			47.50		446.87E-03
			48.00		349.30E-03
			48.50		283.43E-03
			49.00		217.57E-03
			49.50		183.28E-03
			50.00		149.00E-03
			50.50		132.02E-03
			51.00		115.04E-03
			51.50		105.05E-03
			52.00		95.067E-03
			52.50		88.642E-03
			53.00		82.217E-03
			53.50		77.772E-03
			54.00		73.328E-03
			54.50		69.969E-03
			55.00		66.610E-03
			55.50		64.053E-03
			56.00		61.497E-03
			56.50		59.241E-03
			57.00		56.985E-03
			57.50		55.351E-03
			58.00		53.717E-03
			58.50		52.460E-03
			59.00		51.202E-03
			59.50		50.025E-03
			60.00		48.847E-03
			60.50		47.791E-03
			61.00		46.736E-03
			61.50		45.647E-03
			62.00		44.558E-03
			62.50		43.788E-03
			63.00		43.018E-03
			63.50		42.158E-03
			64.00		41.298E-03
			64.50		40.467E-03
			65.00		39.636E-03
			65.50		38.824E-03
			66.00		38.012E-03
			66.50		37.427E-03
			67.00		36.843E-03
			67.50		36.254E-03
			68.00		35.665E-03
			68.50		35.191E-03
			69.00		34.718E-03
			69.50		34.144E-03
			70.00		33.569E-03
			70.50		33.037E-03
			71.00		32.504E-03
			71.50		32.074E-03
			72.00		31.645E-03
			72.50		31.228E-03
			73.00		30.811E-03
			73.50		30.414E-03
			74.00		30.018E-03
			74.50		29.642E-03
			75.00		29.266E-03
			75.50		28.873E-03
			76.00		28.480E-03
			76.50		28.134E-03
			77.00		27.788E-03
			77.50		27.345E-03
			78.00		26.902E-03
		END_DATA
	END_SCAN  1
	BEGIN_SCAN  2
		TASK_NAME=tba PDD Profiles
		PROGRAM=WaterTankScans
		COMMENT=PDD + 5x X
		MEAS_DATE=09-Feb-2021 16:07:50
		LINAC=TRUEBEAMSN4791
		MODALITY=X
		ISOCENTER=1000.00
		INPLANE_AXIS=Y
		CROSSPLANE_AXIS=X
		DEPTH_AXIS=Depth
		INPLANE_AXIS_DIR=TARGET_GUN
		CROSSPLANE_AXIS_DIR=LEFT_RIGHT
		DEPTH_AXIS_DIR=UP_DOWN
		ENERGY=6.00
		NOMINAL_DMAX=15.00
		SSD=900.00
		SCD=450.00
		WEDGE_ANGLE=0.00
		FIELD_INPLANE=100.00
		FIELD_CROSSPLANE=100.00
		FIELD_TYPE=RECTANGULAR
		GANTRY=0.00
		GANTRY_UPRIGHT_POSITION=0
		GANTRY_ROTATION=CW
		COLL_ANGLE=0.00
		COLL_OFFSET_INPLANE=0.00
		COLL_OFFSET_CROSSPLANE=0.00
		SCAN_DEVICE=BeamScan
		SCAN_DEVICE_SETUP=BARA_LEFT_RIGHT
		ELECTROMETER=BeamScan
		RANGE_FIELD=LOW
		RANGE_REFERENCE=MEDIUM
		DETECTOR=THIMBLE_CHAMBER
		DETECTOR_SUBCODE=SEMIFLEX
		DETECTOR_RADIUS=2.40
		DETECTOR_NAME=PTW 31021 Semiflex 3D (1)
		DETECTOR_SN=142316
		DETECTOR_CALIBRATION=588000000.00
		DETECTOR_IS_CALIBRATED=1
		DETECTOR_REFERENCE=THIMBLE_CHAMBER
		DETECTOR_REFERENCE_SUBCODE=SEMIFLEX
		DETECTOR_REFERENCE_RADIUS=2.75
		DETECTOR_REFERENCE_NAME=PTW 31010 Semiflex (1)
		DETECTOR_REFERENCE_SN=Ã¢â‚¬â€
		DETECTOR_REFERENCE_IS_CALIBRATED=0
		DETECTOR_REFERENCE_CALIBRATION=303000000.00
		DETECTOR_HV=400.0
		DETECTOR_REFERENCE_HV=400.0
		DETECTOR_ORIENTATION=HORIZONTAL
		FILTER=FFF
		SCAN_SPEED_PROFILE=12.50
		SCAN_PROF_SPEED_DEP=DEPTH
		SCAN_SPEED_PDD=12.50
		SCAN_PDD_SPEED_DEP=ENERGY
		DETECTOR_TYPE=T31021
		REF_FIELD_DEPTH=100.00
		REF_FIELD_DEFINED=ISOCENTER
		REF_FIELD_INPLANE=100.00
		REF_FIELD_CROSSPLANE=100.00
		REF_SCAN_POSITIONS=-85.00;-84.00;-83.00;-82.00;-81.00;-80.00;-79.00;-78.00;-77.00;-76.00;-75.00;-74.00;-73.00;-72.00;-71.00;-70.00;-69.00;-68.00;-67.00;-66.00;-65.00;-64.00;-63.00;-62.00;-61.00;-60.00;-59.00;-58.00;-57.00;-56.00;-55.00;-54.00;-53.00;-52.00;-51.00;-50.00;-49.00;-48.00;-47.00;-46.00;-45.00;-44.00;-43.00;-42.00;-41.00;-40.00;-39.00;-38.00;-37.00;-36.00;-35.00;-34.00;-33.00;-32.00;-31.00;-30.00;-29.00;-28.00;-27.00;-26.00;-25.00;-24.00;-23.00;-22.00;-21.00;-20.00;-19.00;-18.00;-17.00;-16.00;-15.00;-14.00;-13.00;-12.00;-11.00;-10.00;-9.00;-8.00;-7.00;-6.00;-5.00;-4.00;-3.00;-2.00;-1.00;0.00;1.00;2.00;3.00;4.00;5.00;6.00;7.00;8.00;9.00;10.00;11.00;12.00;13.00;14.00;15.00;16.00;17.00;18.00;19.00;20.00;21.00;22.00;23.00;24.00;25.00;26.00;27.00;28.00;29.00;30.00;31.00;32.00;33.00;34.00;35.00;36.00;37.00;38.00;39.00;40.00;41.00;42.00;43.00;44.00;45.00;46.00;47.00;48.00;49.00;50.00;51.00;52.00;53.00;54.00;55.00;56.00;57.00;58.00;59.00;60.00;61.00;62.00;63.00;64.00;65.00;66.00;67.00;68.00;69.00;70.00;71.00;72.00;73.00;74.00;75.00;76.00;77.00;78.00;79.00;80.00;81.00;82.00;83.00;84.00;85.00;
		REF_OVERSCAN_FACTOR=1.00
		SCAN_CURVETYPE=CROSSPLANE_PROFILE
		SCAN_DEPTH=50.00
		SCAN_OFFAXIS_INPLANE=0.00
		SCAN_OFFAXIS_CROSSPLANE=0.00
		SCAN_ANGLE=0.00
		SCAN_DIAGONAL=NOT_DIAGONAL
		SCAN_DIRECTION=NEGATIVE
		MEAS_MEDIUM=WATER
		MEAS_PRESET=MEAS_CONTINUOUS_REFERENCE_SCAN
		MEAS_TIME=0.080
		MEAS_UNIT=A.U.
		INCLINATION_ANGLE=0.00
		PRESSURE=1013.25
		TEMPERATURE=20.00
		NORM_TEMPERATURE=20.00
		CORRECTION_FACTOR=1.0000
		EXPECTED_MAX_DOSE_RATE=3.00
		EPOM_DEPTH_SHIFT=0.2
		EPOM_MODE=SHIFT_PROTOCOL
		CORRECTIONS=SMOOTHED_CORR;SYMMETRY_CORR;INTERPOLATED_CORR;
		BEGIN_DATA
			-81.00		35.795E-03
			-80.50		36.470E-03
			-80.00		37.145E-03
			-79.50		37.663E-03
			-79.00		38.181E-03
			-78.50		38.799E-03
			-78.00		39.417E-03
			-77.50		39.958E-03
			-77.00		40.498E-03
			-76.50		41.123E-03
			-76.00		41.748E-03
			-75.50		42.401E-03
			-75.00		43.053E-03
			-74.50		43.854E-03
			-74.00		44.655E-03
			-73.50		45.287E-03
			-73.00		45.920E-03
			-72.50		46.717E-03
			-72.00		47.513E-03
			-71.50		48.356E-03
			-71.00		49.199E-03
			-70.50		50.111E-03
			-70.00		51.022E-03
			-69.50		52.007E-03
			-69.00		52.992E-03
			-68.50		53.923E-03
			-68.00		54.853E-03
			-67.50		56.071E-03
			-67.00		57.289E-03
			-66.50		58.514E-03
			-66.00		59.740E-03
			-65.50		60.906E-03
			-65.00		62.071E-03
			-64.50		63.486E-03
			-64.00		64.900E-03
			-63.50		66.390E-03
			-63.00		67.881E-03
			-62.50		69.623E-03
			-62.00		71.364E-03
			-61.50		72.949E-03
			-61.00		74.534E-03
			-60.50		76.566E-03
			-60.00		78.597E-03
			-59.50		80.617E-03
			-59.00		82.636E-03
			-58.50		85.184E-03
			-58.00		87.731E-03
			-57.50		90.659E-03
			-57.00		93.586E-03
			-56.50		97.188E-03
			-56.00		100.79E-03
			-55.50		105.42E-03
			-55.00		110.04E-03
			-54.50		116.11E-03
			-54.00		122.18E-03
			-53.50		131.02E-03
			-53.00		139.86E-03
			-52.50		153.41E-03
			-52.00		166.95E-03
			-51.50		191.62E-03
			-51.00		216.28E-03
			-50.50		261.57E-03
			-50.00		306.86E-03
			-49.50		375.69E-03
			-49.00		444.53E-03
			-48.50		531.69E-03
			-48.00		618.85E-03
			-47.50		714.99E-03
			-47.00		811.13E-03
			-46.50		899.65E-03
			-46.00		988.18E-03
			-45.50		1.0601E+00
			-45.00		1.1321E+00
			-44.50		1.1807E+00
			-44.00		1.2293E+00
			-43.50		1.2569E+00
			-43.00		1.2845E+00
			-42.50		1.3009E+00
			-42.00		1.3173E+00
			-41.50		1.3295E+00
			-41.00		1.3417E+00
			-40.50		1.3497E+00
			-40.00		1.3577E+00
			-39.50		1.3644E+00
			-39.00		1.3712E+00
			-38.50		1.3766E+00
			-38.00		1.3821E+00
			-37.50		1.3872E+00
			-37.00		1.3924E+00
			-36.50		1.3970E+00
			-36.00		1.4016E+00
			-35.50		1.4056E+00
			-35.00		1.4096E+00
			-34.50		1.4135E+00
			-34.00		1.4174E+00
			-33.50		1.4214E+00
			-33.00		1.4253E+00
			-32.50		1.4290E+00
			-32.00		1.4328E+00
			-31.50		1.4362E+00
			-31.00		1.4397E+00
			-30.50		1.4428E+00
			-30.00		1.4459E+00
			-29.50		1.4487E+00
			-29.00		1.4514E+00
			-28.50		1.4543E+00
			-28.00		1.4571E+00
			-27.50		1.4601E+00
			-27.00		1.4631E+00
			-26.50		1.4660E+00
			-26.00		1.4688E+00
			-25.50		1.4714E+00
			-25.00		1.4741E+00
			-24.50		1.4772E+00
			-24.00		1.4804E+00
			-23.50		1.4832E+00
			-23.00		1.4859E+00
			-22.50		1.4878E+00
			-22.00		1.4897E+00
			-21.50		1.4916E+00
			-21.00		1.4936E+00
			-20.50		1.4958E+00
			-20.00		1.4980E+00
			-19.50		1.5002E+00
			-19.00		1.5024E+00
			-18.50		1.5044E+00
			-18.00		1.5064E+00
			-17.50		1.5086E+00
			-17.00		1.5108E+00
			-16.50		1.5128E+00
			-16.00		1.5148E+00
			-15.50		1.5163E+00
			-15.00		1.5178E+00
			-14.50		1.5192E+00
			-14.00		1.5206E+00
			-13.50		1.5218E+00
			-13.00		1.5231E+00
			-12.50		1.5240E+00
			-12.00		1.5250E+00
			-11.50		1.5257E+00
			-11.00		1.5263E+00
			-10.50		1.5271E+00
			-10.00		1.5280E+00
			-9.50		1.5293E+00
			-9.00		1.5305E+00
			-8.50		1.5318E+00
			-8.00		1.5331E+00
			-7.50		1.5340E+00
			-7.00		1.5349E+00
			-6.50		1.5351E+00
			-6.00		1.5353E+00
			-5.50		1.5357E+00
			-5.00		1.5361E+00
			-4.50		1.5370E+00
			-4.00		1.5379E+00
			-3.50		1.5385E+00
			-3.00		1.5391E+00
			-2.50		1.5391E+00
			-2.00		1.5391E+00
			-1.50		1.5388E+00
			-1.00		1.5385E+00
			-0.50		1.5383E+00
			0.00		1.5382E+00
			0.50		1.5383E+00
			1.00		1.5385E+00
			1.50		1.5388E+00
			2.00		1.5391E+00
			2.50		1.5391E+00
			3.00		1.5391E+00
			3.50		1.5385E+00
			4.00		1.5379E+00
			4.50		1.5370E+00
			5.00		1.5361E+00
			5.50		1.5357E+00
			6.00		1.5353E+00
			6.50		1.5351E+00
			7.00		1.5349E+00
			7.50		1.5340E+00
			8.00		1.5331E+00
			8.50		1.5318E+00
			9.00		1.5305E+00
			9.50		1.5293E+00
			10.00		1.5280E+00
			10.50		1.5271E+00
			11.00		1.5263E+00
			11.50		1.5257E+00
			12.00		1.5250E+00
			12.50		1.5240E+00
			13.00		1.5231E+00
			13.50		1.5218E+00
			14.00		1.5206E+00
			14.50		1.5192E+00
			15.00		1.5178E+00
			15.50		1.5163E+00
			16.00		1.5148E+00
			16.50		1.5128E+00
			17.00		1.5108E+00
			17.50		1.5086E+00
			18.00		1.5064E+00
			18.50		1.5044E+00
			19.00		1.5024E+00
			19.50		1.5002E+00
			20.00		1.4980E+00
			20.50		1.4958E+00
			21.00		1.4936E+00
			21.50		1.4916E+00
			22.00		1.4897E+00
			22.50		1.4878E+00
			23.00		1.4859E+00
			23.50		1.4832E+00
			24.00		1.4804E+00
			24.50		1.4772E+00
			25.00		1.4741E+00
			25.50		1.4714E+00
			26.00		1.4688E+00
			26.50		1.4660E+00
			27.00		1.4631E+00
			27.50		1.4601E+00
			28.00		1.4571E+00
			28.50		1.4543E+00
			29.00		1.4514E+00
			29.50		1.4487E+00
			30.00		1.4459E+00
			30.50		1.4428E+00
			31.00		1.4397E+00
			31.50		1.4362E+00
			32.00		1.4328E+00
			32.50		1.4290E+00
			33.00		1.4253E+00
			33.50		1.4214E+00
			34.00		1.4174E+00
			34.50		1.4135E+00
			35.00		1.4096E+00
			35.50		1.4056E+00
			36.00		1.4016E+00
			36.50		1.3970E+00
			37.00		1.3924E+00
			37.50		1.3872E+00
			38.00		1.3821E+00
			38.50		1.3766E+00
			39.00		1.3712E+00
			39.50		1.3644E+00
			40.00		1.3577E+00
			40.50		1.3497E+00
			41.00		1.3417E+00
			41.50		1.3295E+00
			42.00		1.3173E+00
			42.50		1.3009E+00
			43.00		1.2845E+00
			43.50		1.2569E+00
			44.00		1.2293E+00
			44.50		1.1807E+00
			45.00		1.1321E+00
			45.50		1.0601E+00
			46.00		988.18E-03
			46.50		899.65E-03
			47.00		811.13E-03
			47.50		714.99E-03
			48.00		618.85E-03
			48.50		531.69E-03
			49.00		444.53E-03
			49.50		375.69E-03
			50.00		306.86E-03
			50.50		261.57E-03
			51.00		216.28E-03
			51.50		191.62E-03
			52.00		166.95E-03
			52.50		153.41E-03
			53.00		139.86E-03
			53.50		131.02E-03
			54.00		122.18E-03
			54.50		116.11E-03
			55.00		110.04E-03
			55.50		105.42E-03
			56.00		100.79E-03
			56.50		97.188E-03
			57.00		93.586E-03
			57.50		90.659E-03
			58.00		87.731E-03
			58.50		85.184E-03
			59.00		82.636E-03
			59.50		80.617E-03
			60.00		78.597E-03
			60.50		76.566E-03
			61.00		74.534E-03
			61.50		72.949E-03
			62.00		71.364E-03
			62.50		69.623E-03
			63.00		67.881E-03
			63.50		66.390E-03
			64.00		64.900E-03
			64.50		63.486E-03
			65.00		62.071E-03
			65.50		60.906E-03
			66.00		59.740E-03
			66.50		58.514E-03
			67.00		57.289E-03
			67.50		56.071E-03
			68.00		54.853E-03
			68.50		53.923E-03
			69.00		52.992E-03
			69.50		52.007E-03
			70.00		51.022E-03
			70.50		50.111E-03
			71.00		49.199E-03
			71.50		48.356E-03
			72.00		47.513E-03
			72.50		46.717E-03
			73.00		45.920E-03
			73.50		45.287E-03
