BEGIN_SCAN_DATA
	FORMAT=CC-Export V1.9                  
	FILE_CREATION_DATE=26-Jul-2022 10:32:49
	LAST_MODIFIED=26-Jul-2022 10:32:49
	BEGIN_SCAN  1
		TASK_NAME=tba PDD Profiles
		PROGRAM=WaterTankScans
		COMMENT=5x X
		MEAS_DATE=08-Feb-2021 10:36:58
		LINAC=TRUEBEAMSN4791
		MODALITY=X
		ISOCENTER=1000.00
		INPLANE_AXIS=Y
		CROSSPLANE_AXIS=X
		DEPTH_AXIS=Depth
		INPLANE_AXIS_DIR=TARGET_GUN
		CROSSPLANE_AXIS_DIR=LEFT_RIGHT
		DEPTH_AXIS_DIR=UP_DOWN
		ENERGY=6.00
		NOMINAL_DMAX=15.00
		SSD=900.00
		SCD=450.00
		WEDGE_ANGLE=0.00
		FIELD_INPLANE=400.00
		FIELD_CROSSPLANE=400.00
		FIELD_TYPE=RECTANGULAR
		GANTRY=0.00
		GANTRY_UPRIGHT_POSITION=0
		GANTRY_ROTATION=CW
		COLL_ANGLE=0.00
		COLL_OFFSET_INPLANE=0.00
		COLL_OFFSET_CROSSPLANE=0.00
		SCAN_DEVICE=BeamScan
		SCAN_DEVICE_SETUP=BARA_LEFT_RIGHT
		ELECTROMETER=BeamScan
		RANGE_FIELD=LOW
		RANGE_REFERENCE=MEDIUM
		DETECTOR=THIMBLE_CHAMBER
		DETECTOR_SUBCODE=SEMIFLEX
		DETECTOR_RADIUS=2.40
		DETECTOR_NAME=PTW 31021 Semiflex 3D (1)
		DETECTOR_SN=142316
		DETECTOR_CALIBRATION=588000000.00
		DETECTOR_IS_CALIBRATED=1
		DETECTOR_REFERENCE=THIMBLE_CHAMBER
		DETECTOR_REFERENCE_SUBCODE=SEMIFLEX
		DETECTOR_REFERENCE_RADIUS=2.75
		DETECTOR_REFERENCE_NAME=PTW 31010 Semiflex (1)
		DETECTOR_REFERENCE_SN=ÃƒÆ’Ã‚Â¢ÃƒÂ¢Ã¢â‚¬Å¡Ã‚Â¬ÃƒÂ¢Ã¢â€šÂ¬
		DETECTOR_REFERENCE_IS_CALIBRATED=0
		DETECTOR_REFERENCE_CALIBRATION=303000000.00
		DETECTOR_HV=400.0
		DETECTOR_REFERENCE_HV=400.0
		DETECTOR_ORIENTATION=HORIZONTAL
		FILTER=FF
		SCAN_SPEED_PROFILE=12.50
		SCAN_PROF_SPEED_DEP=DEPTH
		SCAN_SPEED_PDD=0.00
		SCAN_PDD_SPEED_DEP=ENERGY
		DETECTOR_TYPE=T31021
		REF_FIELD_DEPTH=300.00
		REF_FIELD_DEFINED=ISOCENTER
		REF_FIELD_INPLANE=100.00
		REF_FIELD_CROSSPLANE=100.00
		REF_SCAN_POSITIONS=-85.00;-84.00;-83.00;-82.00;-81.00;-80.00;-79.00;-78.00;-77.00;-76.00;-75.00;-74.00;-73.00;-72.00;-71.00;-70.00;-69.00;-68.00;-67.00;-66.00;-65.00;-64.00;-63.00;-62.00;-61.00;-60.00;-59.00;-58.00;-57.00;-56.00;-55.00;-54.00;-53.00;-52.00;-51.00;-50.00;-49.00;-48.00;-47.00;-46.00;-45.00;-44.00;-43.00;-42.00;-41.00;-40.00;-39.00;-38.00;-37.00;-36.00;-35.00;-34.00;-33.00;-32.00;-31.00;-30.00;-29.00;-28.00;-27.00;-26.00;-25.00;-24.00;-23.00;-22.00;-21.00;-20.00;-19.00;-18.00;-17.00;-16.00;-15.00;-14.00;-13.00;-12.00;-11.00;-10.00;-9.00;-8.00;-7.00;-6.00;-5.00;-4.00;-3.00;-2.00;-1.00;0.00;1.00;2.00;3.00;4.00;5.00;6.00;7.00;8.00;9.00;10.00;11.00;12.00;13.00;14.00;15.00;16.00;17.00;18.00;19.00;20.00;21.00;22.00;23.00;24.00;25.00;26.00;27.00;28.00;29.00;30.00;31.00;32.00;33.00;34.00;35.00;36.00;37.00;38.00;39.00;40.00;41.00;42.00;43.00;44.00;45.00;46.00;47.00;48.00;49.00;50.00;51.00;52.00;53.00;54.00;55.00;56.00;57.00;58.00;59.00;60.00;61.00;62.00;63.00;64.00;65.00;66.00;67.00;68.00;69.00;70.00;71.00;72.00;73.00;74.00;75.00;76.00;77.00;78.00;79.00;80.00;81.00;82.00;83.00;84.00;85.00;
		REF_OVERSCAN_FACTOR=1.00
		SCAN_CURVETYPE=CROSSPLANE_PROFILE
		SCAN_DEPTH=15.00
		SCAN_OFFAXIS_INPLANE=0.00
		SCAN_OFFAXIS_CROSSPLANE=0.00
		SCAN_ANGLE=0.00
		SCAN_DIAGONAL=NOT_DIAGONAL
		SCAN_DIRECTION=POSITIVE
		MEAS_MEDIUM=WATER
		MEAS_PRESET=MEAS_CONTINUOUS_REFERENCE_SCAN
		MEAS_TIME=0.080
		MEAS_UNIT=A.U.
		INCLINATION_ANGLE=0.00
		PRESSURE=1013.25
		TEMPERATURE=20.00
		NORM_TEMPERATURE=20.00
		CORRECTION_FACTOR=1.0000
		EXPECTED_MAX_DOSE_RATE=3.00
		EPOM_DEPTH_SHIFT=0.2
		EPOM_MODE=SHIFT_PROTOCOL
		CORRECTIONS=SMOOTHED_CORR;CAX_CORR;SYMMETRY_CORR;INTERPOLATED_CORR;MODIFIED_CORR;
		BEGIN_DATA
			-214.00		48.664E-03
			-213.50		49.288E-03
			-213.00		49.912E-03
			-212.50		50.536E-03
			-212.00		51.160E-03
			-211.50		51.784E-03
			-211.00		52.408E-03
			-210.50		53.655E-03
			-210.00		54.903E-03
			-209.50		55.527E-03
			-209.00		56.151E-03
			-208.50		56.775E-03
			-208.00		57.399E-03
			-207.50		58.647E-03
			-207.00		59.894E-03
			-206.50		60.518E-03
			-206.00		61.142E-03
			-205.50		62.390E-03
			-205.00		63.638E-03
			-204.50		64.885E-03
			-204.00		66.133E-03
			-203.50		67.381E-03
			-203.00		68.629E-03
			-202.50		69.877E-03
			-202.00		71.125E-03
			-201.50		72.996E-03
			-201.00		74.868E-03
			-200.50		76.116E-03
			-200.00		77.364E-03
			-199.50		79.235E-03
			-199.00		81.107E-03
			-198.50		82.979E-03
			-198.00		84.850E-03
			-197.50		86.722E-03
			-197.00		88.594E-03
			-196.50		91.714E-03
			-196.00		94.833E-03
			-195.50		97.328E-03
			-195.00		99.824E-03
			-194.50		102.94E-03
			-194.00		106.06E-03
			-193.50		109.81E-03
			-193.00		113.55E-03
			-192.50		117.92E-03
			-192.00		122.28E-03
			-191.50		127.89E-03
			-191.00		133.51E-03
			-190.50		140.37E-03
			-190.00		147.24E-03
			-189.50		157.84E-03
			-189.00		168.45E-03
			-188.50		183.43E-03
			-188.00		198.40E-03
			-187.50		227.10E-03
			-187.00		255.80E-03
			-186.50		302.59E-03
			-186.00		349.38E-03
			-185.50		408.03E-03
			-185.00		466.68E-03
			-184.50		534.06E-03
			-184.00		601.44E-03
			-183.50		676.93E-03
			-183.00		752.42E-03
			-182.50		825.42E-03
			-182.00		898.42E-03
			-181.50		960.81E-03
			-181.00		1.0232E+00
			-180.50		1.0731E+00
			-180.00		1.1230E+00
			-179.50		1.1579E+00
			-179.00		1.1929E+00
			-178.50		1.2128E+00
			-178.00		1.2328E+00
			-177.50		1.2441E+00
			-177.00		1.2553E+00
			-176.50		1.2622E+00
			-176.00		1.2690E+00
			-175.50		1.2734E+00
			-175.00		1.2777E+00
			-174.50		1.2808E+00
			-174.00		1.2840E+00
			-173.50		1.2865E+00
			-173.00		1.2890E+00
			-172.50		1.2909E+00
			-172.00		1.2927E+00
			-171.50		1.2946E+00
			-171.00		1.2965E+00
			-170.50		1.2977E+00
			-170.00		1.2990E+00
			-169.50		1.2996E+00
			-169.00		1.3002E+00
			-168.50		1.3008E+00
			-168.00		1.3015E+00
			-167.50		1.3021E+00
			-167.00		1.3027E+00
			-166.50		1.3033E+00
			-166.00		1.3040E+00
			-165.50		1.3046E+00
			-165.00		1.3052E+00
			-164.50		1.3052E+00
			-164.00		1.3052E+00
			-163.50		1.3058E+00
			-163.00		1.3064E+00
			-162.50		1.3064E+00
			-162.00		1.3064E+00
			-161.50		1.3070E+00
			-161.00		1.3077E+00
			-160.50		1.3077E+00
			-160.00		1.3077E+00
			-159.50		1.3077E+00
			-159.00		1.3077E+00
			-158.50		1.3083E+00
			-158.00		1.3089E+00
			-157.50		1.3089E+00
			-157.00		1.3089E+00
			-156.50		1.3089E+00
			-156.00		1.3089E+00
			-155.50		1.3096E+00
			-155.00		1.3102E+00
			-154.50		1.3108E+00
			-154.00		1.3114E+00
			-153.50		1.3114E+00
			-153.00		1.3114E+00
			-152.50		1.3114E+00
			-152.00		1.3114E+00
			-151.50		1.3114E+00
			-151.00		1.3114E+00
			-150.50		1.3114E+00
			-150.00		1.3114E+00
			-149.50		1.3114E+00
			-149.00		1.3114E+00
			-148.50		1.3114E+00
			-148.00		1.3114E+00
			-147.50		1.3114E+00
			-147.00		1.3114E+00
			-146.50		1.3114E+00
			-146.00		1.3114E+00
			-145.50		1.3114E+00
			-145.00		1.3114E+00
			-144.50		1.3114E+00
			-144.00		1.3114E+00
			-143.50		1.3121E+00
			-143.00		1.3127E+00
			-142.50		1.3127E+00
			-142.00		1.3127E+00
			-141.50		1.3121E+00
			-141.00		1.3114E+00
			-140.50		1.3114E+00
			-140.00		1.3114E+00
			-139.50		1.3114E+00
			-139.00		1.3114E+00
			-138.50		1.3114E+00
			-138.00		1.3114E+00
			-137.50		1.3114E+00
			-137.00		1.3114E+00
			-136.50		1.3114E+00
			-136.00		1.3114E+00
			-135.50		1.3114E+00
			-135.00		1.3114E+00
			-134.50		1.3114E+00
			-134.00		1.3114E+00
			-133.50		1.3114E+00
			-133.00		1.3114E+00
			-132.50		1.3108E+00
			-132.00		1.3102E+00
			-131.50		1.3102E+00
			-131.00		1.3102E+00
			-130.50		1.3108E+00
			-130.00		1.3114E+00
			-129.50		1.3114E+00
			-129.00		1.3114E+00
			-128.50		1.3114E+00
			-128.00		1.3114E+00
			-127.50		1.3108E+00
			-127.00		1.3102E+00
			-126.50		1.3102E+00
			-126.00		1.3102E+00
			-125.50		1.3102E+00
			-125.00		1.3102E+00
			-124.50		1.3096E+00
			-124.00		1.3089E+00
			-123.50		1.3089E+00
			-123.00		1.3089E+00
			-122.50		1.3089E+00
			-122.00		1.3089E+00
			-121.50		1.3089E+00
			-121.00		1.3089E+00
			-120.50		1.3083E+00
			-120.00		1.3077E+00
			-119.50		1.3077E+00
			-119.00		1.3077E+00
			-118.50		1.3077E+00
			-118.00		1.3077E+00
			-117.50		1.3070E+00
			-117.00		1.3064E+00
			-116.50		1.3064E+00
			-116.00		1.3064E+00
			-115.50		1.3058E+00
			-115.00		1.3052E+00
			-114.50		1.3052E+00
			-114.00		1.3052E+00
			-113.50		1.3052E+00
			-113.00		1.3052E+00
			-112.50		1.3052E+00
			-112.00		1.3052E+00
			-111.50		1.3052E+00
			-111.00		1.3052E+00
			-110.50		1.3052E+00
			-110.00		1.3052E+00
			-109.50		1.3052E+00
			-109.00		1.3052E+00
			-108.50		1.3052E+00
			-108.00		1.3052E+00
			-107.50		1.3052E+00
			-107.00		1.3052E+00
			-106.50		1.3046E+00
			-106.00		1.3040E+00
			-105.50		1.3033E+00
			-105.00		1.3027E+00
			-104.50		1.3027E+00
			-104.00		1.3027E+00
			-103.50		1.3027E+00
			-103.00		1.3027E+00
			-102.50		1.3027E+00
			-102.00		1.3027E+00
			-101.50		1.3027E+00
			-101.00		1.3027E+00
			-100.50		1.3021E+00
			-100.00		1.3015E+00
			-99.50		1.3015E+00
			-99.00		1.3015E+00
			-98.50		1.3015E+00
			-98.00		1.3015E+00
			-97.50		1.3015E+00
			-97.00		1.3015E+00
			-96.50		1.3008E+00
			-96.00		1.3002E+00
			-95.50		1.3002E+00
			-95.00		1.3002E+00
			-94.50		1.3002E+00
			-94.00		1.3002E+00
			-93.50		1.3002E+00
			-93.00		1.3002E+00
			-92.50		1.3002E+00
			-92.00		1.3002E+00
			-91.50		1.3002E+00
			-91.00		1.3002E+00
			-90.50		1.2996E+00
			-90.00		1.2990E+00
			-89.50		1.2990E+00
			-89.00		1.2990E+00
			-88.50		1.2984E+00
			-88.00		1.2977E+00
			-87.50		1.2977E+00
			-87.00		1.2977E+00
			-86.50		1.2977E+00
			-86.00		1.2977E+00
			-85.50		1.2971E+00
			-85.00		1.2965E+00
			-84.50		1.2965E+00
			-84.00		1.2965E+00
			-83.50		1.2959E+00
			-83.00		1.2952E+00
			-82.50		1.2952E+00
			-82.00		1.2952E+00
			-81.50		1.2952E+00
			-81.00		1.2952E+00
			-80.50		1.2952E+00
			-80.00		1.2952E+00
			-79.50		1.2946E+00
			-79.00		1.2940E+00
			-78.50		1.2940E+00
			-78.00		1.2940E+00
			-77.50		1.2940E+00
			-77.00		1.2940E+00
			-76.50		1.2940E+00
			-76.00		1.2940E+00
			-75.50		1.2933E+00
			-75.00		1.2927E+00
			-74.50		1.2927E+00
			-74.00		1.2927E+00
			-73.50		1.2927E+00
			-73.00		1.2927E+00
			-72.50		1.2921E+00
			-72.00		1.2915E+00
			-71.50		1.2915E+00
			-71.00		1.2915E+00
			-70.50		1.2908E+00
			-70.00		1.2902E+00
			-69.50		1.2902E+00
			-69.00		1.2902E+00
			-68.50		1.2902E+00
			-68.00		1.2902E+00
			-67.50		1.2902E+00
			-67.00		1.2902E+00
			-66.50		1.2896E+00
			-66.00		1.2890E+00
			-65.50		1.2890E+00
			-65.00		1.2890E+00
			-64.50		1.2890E+00
			-64.00		1.2890E+00
			-63.50		1.2890E+00
			-63.00		1.2890E+00
			-62.50		1.2890E+00
			-62.00		1.2890E+00
			-61.50		1.2890E+00
			-61.00		1.2890E+00
			-60.50		1.2884E+00
			-60.00		1.2877E+00
			-59.50		1.2877E+00
			-59.00		1.2877E+00
			-58.50		1.2871E+00
			-58.00		1.2865E+00
			-57.50		1.2865E+00
			-57.00		1.2865E+00
			-56.50		1.2859E+00
			-56.00		1.2852E+00
			-55.50		1.2852E+00
			-55.00		1.2852E+00
			-54.50		1.2852E+00
			-54.00		1.2852E+00
			-53.50		1.2846E+00
			-53.00		1.2840E+00
			-52.50		1.2833E+00
			-52.00		1.2827E+00
			-51.50		1.2827E+00
			-51.00		1.2827E+00
			-50.50		1.2821E+00
			-50.00		1.2815E+00
			-49.50		1.2808E+00
			-49.00		1.2802E+00
			-48.50		1.2802E+00
			-48.00		1.2802E+00
			-47.50		1.2802E+00
			-47.00		1.2802E+00
			-46.50		1.2796E+00
			-46.00		1.2790E+00
			-45.50		1.2783E+00
			-45.00		1.2777E+00
			-44.50		1.2777E+00
			-44.00		1.2777E+00
			-43.50		1.2771E+00
			-43.00		1.2765E+00
			-42.50		1.2765E+00
			-42.00		1.2765E+00
			-41.50		1.2759E+00
			-41.00		1.2753E+00
			-40.50		1.2747E+00
			-40.00		1.2740E+00
			-39.50		1.2734E+00
			-39.00		1.2728E+00
			-38.50		1.2722E+00
			-38.00		1.2715E+00
			-37.50		1.2709E+00
			-37.00		1.2703E+00
			-36.50		1.2696E+00
			-36.00		1.2690E+00
			-35.50		1.2690E+00
			-35.00		1.2690E+00
			-34.50		1.2684E+00
			-34.00		1.2678E+00
			-33.50		1.2671E+00
			-33.00		1.2665E+00
			-32.50		1.2665E+00
			-32.00		1.2665E+00
			-31.50		1.2659E+00
			-31.00		1.2653E+00
			-30.50		1.2647E+00
			-30.00		1.2640E+00
			-29.50		1.2640E+00
			-29.00		1.2640E+00
			-28.50		1.2640E+00
			-28.00		1.2640E+00
			-27.50		1.2640E+00
			-27.00		1.2640E+00
			-26.50		1.2640E+00
			-26.00		1.2640E+00
			-25.50		1.2634E+00
			-25.00		1.2628E+00
			-24.50		1.2622E+00
			-24.00		1.2615E+00
			-23.50		1.2615E+00
			-23.00		1.2615E+00
			-22.50		1.2609E+00
			-22.00		1.2603E+00
			-21.50		1.2603E+00
			-21.00		1.2603E+00
			-20.50		1.2603E+00
			-20.00		1.2603E+00
			-19.50		1.2596E+00
			-19.00		1.2590E+00
			-18.50		1.2590E+00
			-18.00		1.2590E+00
			-17.50		1.2584E+00
			-17.00		1.2578E+00
			-16.50		1.2571E+00
			-16.00		1.2565E+00
			-15.50		1.2565E+00
			-15.00		1.2565E+00
			-14.50		1.2559E+00
			-14.00		1.2553E+00
			-13.50		1.2553E+00
			-13.00		1.2553E+00
			-12.50		1.2553E+00
			-12.00		1.2553E+00
			-11.50		1.2553E+00
			-11.00		1.2553E+00
			-10.50		1.2546E+00
			-10.00		1.2540E+00
			-9.50		1.2540E+00
			-9.00		1.2540E+00
			-8.50		1.2540E+00
			-8.00		1.2540E+00
			-7.50		1.2534E+00
			-7.00		1.2528E+00
			-6.50		1.2522E+00
			-6.00		1.2515E+00
			-5.50		1.2509E+00
			-5.00		1.2503E+00
			-4.50		1.2497E+00
			-4.00		1.2490E+00
			-3.50		1.2484E+00
			-3.00		1.2478E+00
			-2.50		1.2478E+00
			-2.00		1.2478E+00
			-1.50		1.2478E+00
			-1.00		1.2478E+00
			-0.50		1.2478E+00
			0.00		1.2478E+00
			0.50		1.2478E+00
			1.00		1.2478E+00
			1.50		1.2478E+00
			2.00		1.2478E+00
			2.50		1.2478E+00
			3.00		1.2478E+00
			3.50		1.2484E+00
			4.00		1.2490E+00
			4.50		1.2497E+00
			5.00		1.2503E+00
			5.50		1.2509E+00
			6.00		1.2515E+00
			6.50		1.2522E+00
			7.00		1.2528E+00
			7.50		1.2534E+00
			8.00		1.2540E+00
			8.50		1.2540E+00
			9.00		1.2540E+00
			9.50		1.2540E+00
			10.00		1.2540E+00
			10.50		1.2546E+00
			11.00		1.2553E+00
			11.50		1.2553E+00
			12.00		1.2553E+00
			12.50		1.2553E+00
			13.00		1.2553E+00
			13.50		1.2553E+00
			14.00		1.2553E+00
			14.50		1.2559E+00
			15.00		1.2565E+00
			15.50		1.2565E+00
			16.00		1.2565E+00
			16.50		1.2571E+00
			17.00		1.2578E+00
			17.50		1.2584E+00
			18.00		1.2590E+00
			18.50		1.2590E+00
			19.00		1.2590E+00
			19.50		1.2596E+00
			20.00		1.2603E+00
			20.50		1.2603E+00
			21.00		1.2603E+00
			21.50		1.2603E+00
			22.00		1.2603E+00
			22.50		1.2609E+00
			23.00		1.2615E+00
			23.50		1.2615E+00
			24.00		1.2615E+00
			24.50		1.2622E+00
			25.00		1.2628E+00
			25.50		1.2634E+00
			26.00		1.2640E+00
			26.50		1.2640E+00
			27.00		1.2640E+00
			27.50		1.2640E+00
			28.00		1.2640E+00
			28.50		1.2640E+00
			29.00		1.2640E+00
			29.50		1.2640E+00
			30.00		1.2640E+00
			30.50		1.2647E+00
			31.00		1.2653E+00
			31.50		1.2659E+00
			32.00		1.2665E+00
			32.50		1.2665E+00
			33.00		1.2665E+00
			33.50		1.2671E+00
			34.00		1.2678E+00
			34.50		1.2684E+00
			35.00		1.2690E+00
			35.50		1.2690E+00
			36.00		1.2690E+00
			36.50		1.2696E+00
			37.00		1.2703E+00
			37.50		1.2709E+00
			38.00		1.2715E+00
			38.50		1.2722E+00
			39.00		1.2728E+00
			39.50		1.2734E+00
			40.00		1.2740E+00
			40.50		1.2747E+00
			41.00		1.2753E+00
			41.50		1.2759E+00
			42.00		1.2765E+00
			42.50		1.2765E+00
			43.00		1.2765E+00
			43.50		1.2771E+00
			44.00		1.2777E+00
			44.50		1.2777E+00
			45.00		1.2777E+00
			45.50		1.2783E+00
			46.00		1.2790E+00
			46.50		1.2796E+00
			47.00		1.2802E+00
			47.50		1.2802E+00
			48.00		1.2802E+00
			48.50		1.2802E+00
			49.00		1.2802E+00
			49.50		1.2808E+00
			50.00		1.2815E+00
			50.50		1.2821E+00
			51.00		1.2827E+00
			51.50		1.2827E+00
			52.00		1.2827E+00
			52.50		1.2833E+00
			53.00		1.2840E+00
			53.50		1.2846E+00
			54.00		1.2852E+00
			54.50		1.2852E+00
			55.00		1.2852E+00
			55.50		1.2852E+00
			56.00		1.2852E+00
			56.50		1.2859E+00
			57.00		1.2865E+00
			57.50		1.2865E+00
			58.00		1.2865E+00
			58.50		1.2871E+00
			59.00		1.2877E+00
			59.50		1.2877E+00
			60.00		1.2877E+00
			60.50		1.2884E+00
			61.00		1.2890E+00
			61.50		1.2890E+00
			62.00		1.2890E+00
			62.50		1.2890E+00
			63.00		1.2890E+00
			63.50		1.2890E+00
			64.00		1.2890E+00
			64.50		1.2890E+00
			65.00		1.2890E+00
			65.50		1.2890E+00
			66.00		1.2890E+00
			66.50		1.2896E+00
			67.00		1.2902E+00
			67.50		1.2902E+00
			68.00		1.2902E+00
			68.50		1.2902E+00
			69.00		1.2902E+00
			69.50		1.2902E+00
			70.00		1.2902E+00
			70.50		1.2908E+00
			71.00		1.2915E+00
			71.50		1.2915E+00
			72.00		1.2915E+00
			72.50		1.2921E+00
			73.00		1.2927E+00
			73.50		1.2927E+00
			74.00		1.2927E+00
			74.50		1.2927E+00
			75.00		1.2927E+00
			75.50		1.2933E+00
			76.00		1.2940E+00
			76.50		1.2940E+00
			77.00		1.2940E+00
			77.50		1.2940E+00
			78.00		1.2940E+00
			78.50		1.2940E+00
			79.00		1.2940E+00
			79.50		1.2946E+00
			80.00		1.2952E+00
			80.50		1.2952E+00
			81.00		1.2952E+00
			81.50		1.2952E+00
			82.00		1.2952E+00
			82.50		1.2952E+00
			83.00		1.2952E+00
			83.50		1.2959E+00
			84.00		1.2965E+00
			84.50		1.2965E+00
			85.00		1.2965E+00
			85.50		1.2971E+00
			86.00		1.2977E+00
			86.50		1.2977E+00
			87.00		1.2977E+00
			87.50		1.2977E+00
			88.00		1.2977E+00
			88.50		1.2984E+00
			89.00		1.2990E+00
			89.50		1.2990E+00
			90.00		1.2990E+00
			90.50		1.2996E+00
			91.00		1.3002E+00
			91.50		1.3002E+00
			92.00		1.3002E+00
			92.50		1.3002E+00
			93.00		1.3002E+00
			93.50		1.3002E+00
			94.00		1.3002E+00
			94.50		1.3002E+00
			95.00		1.3002E+00
			95.50		1.3002E+00
			96.00		1.3002E+00
			96.50		1.3008E+00
			97.00		1.3015E+00
			97.50		1.3015E+00
			98.00		1.3015E+00
			98.50		1.3015E+00
			99.00		1.3015E+00
			99.50		1.3015E+00
			100.00		1.3015E+00
			100.50		1.3021E+00
			101.00		1.3027E+00
			101.50		1.3027E+00
			102.00		1.3027E+00
			102.50		1.3027E+00
			103.00		1.3027E+00
			103.50		1.3027E+00
			104.00		1.3027E+00
			104.50		1.3027E+00
			105.00		1.3027E+00
			105.50		1.3033E+00
			106.00		1.3040E+00
			106.50		1.3046E+00
			107.00		1.3052E+00
			107.50		1.3052E+00
			108.00		1.3052E+00
			108.50		1.3052E+00
			109.00		1.3052E+00
			109.50		1.3052E+00
			110.00		1.3052E+00
			110.50		1.3052E+00
			111.00		1.3052E+00
			111.50		1.3052E+00
			112.00		1.3052E+00
			112.50		1.3052E+00
			113.00		1.3052E+00
			113.50		1.3052E+00
			114.00		1.3052E+00
			114.50		1.3052E+00
			115.00		1.3052E+00
			115.50		1.3058E+00
			116.00		1.3064E+00
			116.50		1.3064E+00
			117.00		1.3064E+00
			117.50		1.3070E+00
			118.00		1.3077E+00
			118.50		1.3077E+00
			119.00		1.3077E+00
			119.50		1.3077E+00
			120.00		1.3077E+00
			120.50		1.3083E+00
			121.00		1.3089E+00
			121.50		1.3089E+00
			122.00		1.3089E+00
			122.50		1.3089E+00
			123.00		1.3089E+00
			123.50		1.3089E+00
			124.00		1.3089E+00
			124.50		1.3096E+00
			125.00		1.3102E+00
			125.50		1.3102E+00
			126.00		1.3102E+00
			126.50		1.3102E+00
			127.00		1.3102E+00
			127.50		1.3108E+00
			128.00		1.3114E+00
			128.50		1.3114E+00
			129.00		1.3114E+00
			129.50		1.3114E+00
			130.00		1.3114E+00
			130.50		1.3108E+00
			131.00		1.3102E+00
			131.50		1.3102E+00
			132.00		1.3102E+00
			132.50		1.3108E+00
			133.00		1.3114E+00
			133.50		1.3114E+00
			134.00		1.3114E+00
			134.50		1.3114E+00
			135.00		1.3114E+00
			135.50		1.3114E+00
			136.00		1.3114E+00
			136.50		1.3114E+00
			137.00		1.3114E+00
			137.50		1.3114E+00
			138.00		1.3114E+00
			138.50		1.3114E+00
			139.00		1.3114E+00
			139.50		1.3114E+00
			140.00		1.3114E+00
			140.50		1.3114E+00
			141.00		1.3114E+00
			141.50		1.3121E+00
			142.00		1.3127E+00
			142.50		1.3127E+00
			143.00		1.3127E+00
			143.50		1.3121E+00
			144.00		1.3114E+00
			144.50		1.3114E+00
			145.00		1.3114E+00
			145.50		1.3114E+00
			146.00		1.3114E+00
			146.50		1.3114E+00
			147.00		1.3114E+00
			147.50		1.3114E+00
			148.00		1.3114E+00
			148.50		1.3114E+00
			149.00		1.3114E+00
			149.50		1.3114E+00
			150.00		1.3114E+00
			150.50		1.3114E+00
			151.00		1.3114E+00
			151.50		1.3114E+00
			152.00		1.3114E+00
			152.50		1.3114E+00
			153.00		1.3114E+00
			153.50		1.3114E+00
			154.00		1.3114E+00
			154.50		1.3108E+00
			155.00		1.3102E+00
			155.50		1.3096E+00
			156.00		1.3089E+00
			156.50		1.3089E+00
			157.00		1.3089E+00
			157.50		1.3089E+00
			158.00		1.3089E+00
			158.50		1.3083E+00
			159.00		1.3077E+00
			159.50		1.3077E+00
			160.00		1.3077E+00
			160.50		1.3077E+00
			161.00		1.3077E+00
			161.50		1.3070E+00
			162.00		1.3064E+00
