BEGIN_SCAN_DATA
	FORMAT=CC-Export V1.9                  
	FILE_CREATION_DATE=26-Jul-2022 10:35:57
	LAST_MODIFIED=26-Jul-2022 10:35:57
	BEGIN_SCAN  1
		TASK_NAME=tba PDD Profiles
		PROGRAM=WaterTankScans
		COMMENT=PDD + 5x X
		MEAS_DATE=09-Feb-2021 16:15:20
		LINAC=TRUEBEAMSN4791
		MODALITY=X
		ISOCENTER=1000.00
		INPLANE_AXIS=Y
		CROSSPLANE_AXIS=X
		DEPTH_AXIS=Depth
		INPLANE_AXIS_DIR=TARGET_GUN
		CROSSPLANE_AXIS_DIR=LEFT_RIGHT
		DEPTH_AXIS_DIR=UP_DOWN
		ENERGY=6.00
		NOMINAL_DMAX=15.00
		SSD=900.00
		SCD=450.00
		WEDGE_ANGLE=0.00
		FIELD_INPLANE=150.00
		FIELD_CROSSPLANE=150.00
		FIELD_TYPE=RECTANGULAR
		GANTRY=0.00
		GANTRY_UPRIGHT_POSITION=0
		GANTRY_ROTATION=CW
		COLL_ANGLE=0.00
		COLL_OFFSET_INPLANE=0.00
		COLL_OFFSET_CROSSPLANE=0.00
		SCAN_DEVICE=BeamScan
		SCAN_DEVICE_SETUP=BARA_LEFT_RIGHT
		ELECTROMETER=BeamScan
		RANGE_FIELD=LOW
		RANGE_REFERENCE=MEDIUM
		DETECTOR=THIMBLE_CHAMBER
		DETECTOR_SUBCODE=SEMIFLEX
		DETECTOR_RADIUS=2.40
		DETECTOR_NAME=PTW 31021 Semiflex 3D (1)
		DETECTOR_SN=142316
		DETECTOR_CALIBRATION=588000000.00
		DETECTOR_IS_CALIBRATED=1
		DETECTOR_REFERENCE=THIMBLE_CHAMBER
		DETECTOR_REFERENCE_SUBCODE=SEMIFLEX
		DETECTOR_REFERENCE_RADIUS=2.75
		DETECTOR_REFERENCE_NAME=PTW 31010 Semiflex (1)
		DETECTOR_REFERENCE_SN=ÃƒÆ’Ã‚Â¢ÃƒÂ¢Ã¢â‚¬Å¡Ã‚Â¬ÃƒÂ¢Ã¢â€šÂ¬
		DETECTOR_REFERENCE_IS_CALIBRATED=0
		DETECTOR_REFERENCE_CALIBRATION=303000000.00
		DETECTOR_HV=400.0
		DETECTOR_REFERENCE_HV=400.0
		DETECTOR_ORIENTATION=HORIZONTAL
		FILTER=FFF
		SCAN_SPEED_PROFILE=12.50
		SCAN_PROF_SPEED_DEP=DEPTH
		SCAN_SPEED_PDD=12.50
		SCAN_PDD_SPEED_DEP=ENERGY
		DETECTOR_TYPE=T31021
		REF_FIELD_DEPTH=100.00
		REF_FIELD_DEFINED=ISOCENTER
		REF_FIELD_INPLANE=100.00
		REF_FIELD_CROSSPLANE=100.00
		REF_SCAN_POSITIONS=-85.00;-84.00;-83.00;-82.00;-81.00;-80.00;-79.00;-78.00;-77.00;-76.00;-75.00;-74.00;-73.00;-72.00;-71.00;-70.00;-69.00;-68.00;-67.00;-66.00;-65.00;-64.00;-63.00;-62.00;-61.00;-60.00;-59.00;-58.00;-57.00;-56.00;-55.00;-54.00;-53.00;-52.00;-51.00;-50.00;-49.00;-48.00;-47.00;-46.00;-45.00;-44.00;-43.00;-42.00;-41.00;-40.00;-39.00;-38.00;-37.00;-36.00;-35.00;-34.00;-33.00;-32.00;-31.00;-30.00;-29.00;-28.00;-27.00;-26.00;-25.00;-24.00;-23.00;-22.00;-21.00;-20.00;-19.00;-18.00;-17.00;-16.00;-15.00;-14.00;-13.00;-12.00;-11.00;-10.00;-9.00;-8.00;-7.00;-6.00;-5.00;-4.00;-3.00;-2.00;-1.00;0.00;1.00;2.00;3.00;4.00;5.00;6.00;7.00;8.00;9.00;10.00;11.00;12.00;13.00;14.00;15.00;16.00;17.00;18.00;19.00;20.00;21.00;22.00;23.00;24.00;25.00;26.00;27.00;28.00;29.00;30.00;31.00;32.00;33.00;34.00;35.00;36.00;37.00;38.00;39.00;40.00;41.00;42.00;43.00;44.00;45.00;46.00;47.00;48.00;49.00;50.00;51.00;52.00;53.00;54.00;55.00;56.00;57.00;58.00;59.00;60.00;61.00;62.00;63.00;64.00;65.00;66.00;67.00;68.00;69.00;70.00;71.00;72.00;73.00;74.00;75.00;76.00;77.00;78.00;79.00;80.00;81.00;82.00;83.00;84.00;85.00;
		REF_OVERSCAN_FACTOR=1.00
		SCAN_CURVETYPE=CROSSPLANE_PROFILE
		SCAN_DEPTH=15.00
		SCAN_OFFAXIS_INPLANE=0.00
		SCAN_OFFAXIS_CROSSPLANE=0.00
		SCAN_ANGLE=0.00
		SCAN_DIAGONAL=NOT_DIAGONAL
		SCAN_DIRECTION=POSITIVE
		MEAS_MEDIUM=WATER
		MEAS_PRESET=MEAS_CONTINUOUS_REFERENCE_SCAN
		MEAS_TIME=0.080
		MEAS_UNIT=A.U.
		INCLINATION_ANGLE=0.00
		PRESSURE=1013.25
		TEMPERATURE=20.00
		NORM_TEMPERATURE=20.00
		CORRECTION_FACTOR=1.0000
		EXPECTED_MAX_DOSE_RATE=3.00
		EPOM_DEPTH_SHIFT=0.2
		EPOM_MODE=SHIFT_PROTOCOL
		CORRECTIONS=SMOOTHED_CORR;SYMMETRY_CORR;INTERPOLATED_CORR;
		BEGIN_DATA
			-101.00		34.598E-03
			-100.50		34.879E-03
			-100.00		35.160E-03
			-99.50		35.566E-03
			-99.00		35.971E-03
			-98.50		36.502E-03
			-98.00		37.032E-03
			-97.50		37.607E-03
			-97.00		38.181E-03
			-96.50		38.628E-03
			-96.00		39.075E-03
			-95.50		39.391E-03
			-95.00		39.708E-03
			-94.50		40.157E-03
			-94.00		40.606E-03
			-93.50		41.227E-03
			-93.00		41.848E-03
			-92.50		42.538E-03
			-92.00		43.228E-03
			-91.50		43.674E-03
			-91.00		44.120E-03
			-90.50		44.883E-03
			-90.00		45.646E-03
			-89.50		46.285E-03
			-89.00		46.923E-03
			-88.50		47.629E-03
			-88.00		48.335E-03
			-87.50		49.031E-03
			-87.00		49.728E-03
			-86.50		50.660E-03
			-86.00		51.592E-03
			-85.50		52.455E-03
			-85.00		53.317E-03
			-84.50		54.532E-03
			-84.00		55.748E-03
			-83.50		56.830E-03
			-83.00		57.911E-03
			-82.50		59.021E-03
			-82.00		60.130E-03
			-81.50		61.421E-03
			-81.00		62.712E-03
			-80.50		64.246E-03
			-80.00		65.781E-03
			-79.50		67.727E-03
			-79.00		69.672E-03
			-78.50		72.139E-03
			-78.00		74.606E-03
			-77.50		77.459E-03
			-77.00		80.313E-03
			-76.50		84.168E-03
			-76.00		88.023E-03
			-75.50		93.536E-03
			-75.00		99.049E-03
			-74.50		107.36E-03
			-74.00		115.67E-03
			-73.50		130.44E-03
			-73.00		145.20E-03
			-72.50		174.02E-03
			-72.00		202.84E-03
			-71.50		258.84E-03
			-71.00		314.84E-03
			-70.50		397.18E-03
			-70.00		479.53E-03
			-69.50		579.50E-03
			-69.00		679.46E-03
			-68.50		784.41E-03
			-68.00		889.36E-03
			-67.50		983.08E-03
			-67.00		1.0768E+00
			-66.50		1.1498E+00
			-66.00		1.2228E+00
			-65.50		1.2678E+00
			-65.00		1.3128E+00
			-64.50		1.3370E+00
			-64.00		1.3613E+00
			-63.50		1.3754E+00
			-63.00		1.3895E+00
			-62.50		1.3990E+00
			-62.00		1.4086E+00
			-61.50		1.4158E+00
			-61.00		1.4229E+00
			-60.50		1.4288E+00
			-60.00		1.4347E+00
			-59.50		1.4402E+00
			-59.00		1.4457E+00
			-58.50		1.4506E+00
			-58.00		1.4554E+00
			-57.50		1.4597E+00
			-57.00		1.4641E+00
			-56.50		1.4681E+00
			-56.00		1.4721E+00
			-55.50		1.4761E+00
			-55.00		1.4800E+00
			-54.50		1.4836E+00
			-54.00		1.4873E+00
			-53.50		1.4909E+00
			-53.00		1.4945E+00
			-52.50		1.4983E+00
			-52.00		1.5021E+00
			-51.50		1.5059E+00
			-51.00		1.5096E+00
			-50.50		1.5131E+00
			-50.00		1.5165E+00
			-49.50		1.5196E+00
			-49.00		1.5227E+00
			-48.50		1.5259E+00
			-48.00		1.5290E+00
			-47.50		1.5321E+00
			-47.00		1.5352E+00
			-46.50		1.5382E+00
			-46.00		1.5413E+00
			-45.50		1.5445E+00
			-45.00		1.5476E+00
			-44.50		1.5509E+00
			-44.00		1.5541E+00
			-43.50		1.5573E+00
			-43.00		1.5605E+00
			-42.50		1.5636E+00
			-42.00		1.5667E+00
			-41.50		1.5699E+00
			-41.00		1.5732E+00
			-40.50		1.5765E+00
			-40.00		1.5798E+00
			-39.50		1.5829E+00
			-39.00		1.5860E+00
			-38.50		1.5889E+00
			-38.00		1.5918E+00
			-37.50		1.5946E+00
			-37.00		1.5974E+00
			-36.50		1.6001E+00
			-36.00		1.6028E+00
			-35.50		1.6056E+00
			-35.00		1.6085E+00
			-34.50		1.6113E+00
			-34.00		1.6141E+00
			-33.50		1.6166E+00
			-33.00		1.6192E+00
			-32.50		1.6220E+00
			-32.00		1.6248E+00
			-31.50		1.6277E+00
			-31.00		1.6306E+00
			-30.50		1.6335E+00
			-30.00		1.6365E+00
			-29.50		1.6392E+00
			-29.00		1.6418E+00
			-28.50		1.6442E+00
			-28.00		1.6465E+00
			-27.50		1.6485E+00
			-27.00		1.6505E+00
			-26.50		1.6525E+00
			-26.00		1.6546E+00
			-25.50		1.6569E+00
			-25.00		1.6593E+00
			-24.50		1.6618E+00
			-24.00		1.6643E+00
			-23.50		1.6667E+00
			-23.00		1.6691E+00
			-22.50		1.6713E+00
			-22.00		1.6734E+00
			-21.50		1.6755E+00
			-21.00		1.6775E+00
			-20.50		1.6795E+00
			-20.00		1.6814E+00
			-19.50		1.6834E+00
			-19.00		1.6854E+00
			-18.50		1.6873E+00
			-18.00		1.6892E+00
			-17.50		1.6909E+00
			-17.00		1.6925E+00
			-16.50		1.6940E+00
			-16.00		1.6955E+00
			-15.50		1.6970E+00
			-15.00		1.6985E+00
			-14.50		1.6999E+00
			-14.00		1.7013E+00
			-13.50		1.7026E+00
			-13.00		1.7039E+00
			-12.50		1.7052E+00
			-12.00		1.7064E+00
			-11.50		1.7076E+00
			-11.00		1.7088E+00
			-10.50		1.7101E+00
			-10.00		1.7114E+00
			-9.50		1.7127E+00
			-9.00		1.7140E+00
			-8.50		1.7148E+00
			-8.00		1.7157E+00
			-7.50		1.7164E+00
			-7.00		1.7170E+00
			-6.50		1.7175E+00
			-6.00		1.7180E+00
			-5.50		1.7184E+00
			-5.00		1.7187E+00
			-4.50		1.7190E+00
			-4.00		1.7192E+00
			-3.50		1.7196E+00
			-3.00		1.7200E+00
			-2.50		1.7204E+00
			-2.00		1.7207E+00
			-1.50		1.7210E+00
			-1.00		1.7213E+00
			-0.50		1.7213E+00
			0.00		1.7214E+00
			0.50		1.7213E+00
			1.00		1.7213E+00
			1.50		1.7210E+00
			2.00		1.7207E+00
			2.50		1.7204E+00
			3.00		1.7200E+00
			3.50		1.7196E+00
			4.00		1.7192E+00
			4.50		1.7190E+00
			5.00		1.7187E+00
			5.50		1.7184E+00
			6.00		1.7180E+00
			6.50		1.7175E+00
			7.00		1.7170E+00
			7.50		1.7164E+00
			8.00		1.7157E+00
			8.50		1.7148E+00
			9.00		1.7140E+00
			9.50		1.7127E+00
			10.00		1.7114E+00
			10.50		1.7101E+00
			11.00		1.7088E+00
			11.50		1.7076E+00
			12.00		1.7064E+00
			12.50		1.7052E+00
			13.00		1.7039E+00
			13.50		1.7026E+00
			14.00		1.7013E+00
			14.50		1.6999E+00
			15.00		1.6985E+00
			15.50		1.6970E+00
			16.00		1.6955E+00
			16.50		1.6940E+00
			17.00		1.6925E+00
			17.50		1.6909E+00
			18.00		1.6892E+00
			18.50		1.6873E+00
			19.00		1.6854E+00
			19.50		1.6834E+00
			20.00		1.6814E+00
			20.50		1.6795E+00
			21.00		1.6775E+00
			21.50		1.6755E+00
			22.00		1.6734E+00
			22.50		1.6713E+00
			23.00		1.6691E+00
			23.50		1.6667E+00
			24.00		1.6643E+00
			24.50		1.6618E+00
			25.00		1.6593E+00
			25.50		1.6569E+00
			26.00		1.6546E+00
			26.50		1.6525E+00
			27.00		1.6505E+00
			27.50		1.6485E+00
			28.00		1.6465E+00
			28.50		1.6442E+00
			29.00		1.6418E+00
			29.50		1.6392E+00
			30.00		1.6365E+00
			30.50		1.6335E+00
			31.00		1.6306E+00
			31.50		1.6277E+00
			32.00		1.6248E+00
			32.50		1.6220E+00
			33.00		1.6192E+00
			33.50		1.6166E+00
			34.00		1.6141E+00
			34.50		1.6113E+00
			35.00		1.6085E+00
			35.50		1.6056E+00
			36.00		1.6028E+00
			36.50		1.6001E+00
			37.00		1.5974E+00
			37.50		1.5946E+00
			38.00		1.5918E+00
			38.50		1.5889E+00
			39.00		1.5860E+00
			39.50		1.5829E+00
			40.00		1.5798E+00
			40.50		1.5765E+00
			41.00		1.5732E+00
			41.50		1.5699E+00
			42.00		1.5667E+00
			42.50		1.5636E+00
			43.00		1.5605E+00
			43.50		1.5573E+00
			44.00		1.5541E+00
			44.50		1.5509E+00
			45.00		1.5476E+00
			45.50		1.5445E+00
			46.00		1.5413E+00
			46.50		1.5382E+00
			47.00		1.5352E+00
			47.50		1.5321E+00
			48.00		1.5290E+00
			48.50		1.5259E+00
			49.00		1.5227E+00
			49.50		1.5196E+00
			50.00		1.5165E+00
			50.50		1.5131E+00
			51.00		1.5096E+00
			51.50		1.5059E+00
			52.00		1.5021E+00
			52.50		1.4983E+00
			53.00		1.4945E+00
			53.50		1.4909E+00
			54.00		1.4873E+00
			54.50		1.4836E+00
			55.00		1.4800E+00
			55.50		1.4761E+00
			56.00		1.4721E+00
			56.50		1.4681E+00
			57.00		1.4641E+00
			57.50		1.4597E+00
			58.00		1.4554E+00
			58.50		1.4506E+00
			59.00		1.4457E+00
			59.50		1.4402E+00
			60.00		1.4347E+00
			60.50		1.4288E+00
			61.00		1.4229E+00
			61.50		1.4158E+00
			62.00		1.4086E+00
			62.50		1.3990E+00
			63.00		1.3895E+00
			63.50		1.3754E+00
			64.00		1.3613E+00
			64.50		1.3370E+00
			65.00		1.3128E+00
			65.50		1.2678E+00
			66.00		1.2228E+00
			66.50		1.1498E+00
			67.00		1.0768E+00
			67.50		983.08E-03
			68.00		889.36E-03
			68.50		784.41E-03
			69.00		679.46E-03
			69.50		579.50E-03
			70.00		479.53E-03
			70.50		397.18E-03
			71.00		314.84E-03
			71.50		258.84E-03
			72.00		202.84E-03
			72.50		174.02E-03
			73.00		145.20E-03
			73.50		130.44E-03
			74.00		115.67E-03
			74.50		107.36E-03
			75.00		99.049E-03
			75.50		93.536E-03
			76.00		88.023E-03
			76.50		84.168E-03
			77.00		80.313E-03
			77.50		77.459E-03
			78.00		74.606E-03
			78.50		72.139E-03
			79.00		69.672E-03
			79.50		67.727E-03
			80.00		65.781E-03
			80.50		64.246E-03
			81.00		62.712E-03
			81.50		61.421E-03
			82.00		60.130E-03
			82.50		59.021E-03
			83.00		57.911E-03
			83.50		56.830E-03
			84.00		55.748E-03
			84.50		54.532E-03
			85.00		53.317E-03
			85.50		52.455E-03
			86.00		51.592E-03
			86.50		50.660E-03
			87.00		49.728E-03
			87.50		49.031E-03
			88.00		48.335E-03
			88.50		47.629E-03
			89.00		46.923E-03
			89.50		46.285E-03
			90.00		45.646E-03
			90.50		44.883E-03
			91.00		44.120E-03
			91.50		43.674E-03
			92.00		43.228E-03
			92.50		42.538E-03
			93.00		41.848E-03
			93.50		41.227E-03
			94.00		40.606E-03
			94.50		40.157E-03
			95.00		39.708E-03
			95.50		39.391E-03
			96.00		39.075E-03
			96.50		38.628E-03
			97.00		38.181E-03
			97.50		37.607E-03
			98.00		37.032E-03
			98.50		36.502E-03
			99.00		35.971E-03
			99.50		35.566E-03
			100.00		35.160E-03
			100.50		34.879E-03
			101.00		34.598E-03
		END_DATA
	END_SCAN  1
	BEGIN_SCAN  2
		TASK_NAME=tba PDD Profiles
		PROGRAM=WaterTankScans
		COMMENT=PDD + 5x X
		MEAS_DATE=09-Feb-2021 16:15:42
		LINAC=TRUEBEAMSN4791
		MODALITY=X
		ISOCENTER=1000.00
		INPLANE_AXIS=Y
		CROSSPLANE_AXIS=X
		DEPTH_AXIS=Depth
		INPLANE_AXIS_DIR=TARGET_GUN
		CROSSPLANE_AXIS_DIR=LEFT_RIGHT
		DEPTH_AXIS_DIR=UP_DOWN
		ENERGY=6.00
		NOMINAL_DMAX=15.00
		SSD=900.00
		SCD=450.00
		WEDGE_ANGLE=0.00
		FIELD_INPLANE=150.00
		FIELD_CROSSPLANE=150.00
		FIELD_TYPE=RECTANGULAR
		GANTRY=0.00
		GANTRY_UPRIGHT_POSITION=0
		GANTRY_ROTATION=CW
		COLL_ANGLE=0.00
		COLL_OFFSET_INPLANE=0.00
		COLL_OFFSET_CROSSPLANE=0.00
		SCAN_DEVICE=BeamScan
		SCAN_DEVICE_SETUP=BARA_LEFT_RIGHT
		ELECTROMETER=BeamScan
		RANGE_FIELD=LOW
		RANGE_REFERENCE=MEDIUM
		DETECTOR=THIMBLE_CHAMBER
		DETECTOR_SUBCODE=SEMIFLEX
		DETECTOR_RADIUS=2.40
		DETECTOR_NAME=PTW 31021 Semiflex 3D (1)
		DETECTOR_SN=142316
		DETECTOR_CALIBRATION=588000000.00
		DETECTOR_IS_CALIBRATED=1
		DETECTOR_REFERENCE=THIMBLE_CHAMBER
		DETECTOR_REFERENCE_SUBCODE=SEMIFLEX
		DETECTOR_REFERENCE_RADIUS=2.75
		DETECTOR_REFERENCE_NAME=PTW 31010 Semiflex (1)
		DETECTOR_REFERENCE_SN=ÃƒÆ’Ã‚Â¢ÃƒÂ¢Ã¢â‚¬Å¡Ã‚Â¬ÃƒÂ¢Ã¢â€šÂ¬
		DETECTOR_REFERENCE_IS_CALIBRATED=0
		DETECTOR_REFERENCE_CALIBRATION=303000000.00
		DETECTOR_HV=400.0
		DETECTOR_REFERENCE_HV=400.0
		DETECTOR_ORIENTATION=HORIZONTAL
		FILTER=FFF
		SCAN_SPEED_PROFILE=12.50
		SCAN_PROF_SPEED_DEP=DEPTH
		SCAN_SPEED_PDD=12.50
		SCAN_PDD_SPEED_DEP=ENERGY
		DETECTOR_TYPE=T31021
		REF_FIELD_DEPTH=100.00
		REF_FIELD_DEFINED=ISOCENTER
		REF_FIELD_INPLANE=100.00
		REF_FIELD_CROSSPLANE=100.00
		REF_SCAN_POSITIONS=-85.00;-84.00;-83.00;-82.00;-81.00;-80.00;-79.00;-78.00;-77.00;-76.00;-75.00;-74.00;-73.00;-72.00;-71.00;-70.00;-69.00;-68.00;-67.00;-66.00;-65.00;-64.00;-63.00;-62.00;-61.00;-60.00;-59.00;-58.00;-57.00;-56.00;-55.00;-54.00;-53.00;-52.00;-51.00;-50.00;-49.00;-48.00;-47.00;-46.00;-45.00;-44.00;-43.00;-42.00;-41.00;-40.00;-39.00;-38.00;-37.00;-36.00;-35.00;-34.00;-33.00;-32.00;-31.00;-30.00;-29.00;-28.00;-27.00;-26.00;-25.00;-24.00;-23.00;-22.00;-21.00;-20.00;-19.00;-18.00;-17.00;-16.00;-15.00;-14.00;-13.00;-12.00;-11.00;-10.00;-9.00;-8.00;-7.00;-6.00;-5.00;-4.00;-3.00;-2.00;-1.00;0.00;1.00;2.00;3.00;4.00;5.00;6.00;7.00;8.00;9.00;10.00;11.00;12.00;13.00;14.00;15.00;16.00;17.00;18.00;19.00;20.00;21.00;22.00;23.00;24.00;25.00;26.00;27.00;28.00;29.00;30.00;31.00;32.00;33.00;34.00;35.00;36.00;37.00;38.00;39.00;40.00;41.00;42.00;43.00;44.00;45.00;46.00;47.00;48.00;49.00;50.00;51.00;52.00;53.00;54.00;55.00;56.00;57.00;58.00;59.00;60.00;61.00;62.00;63.00;64.00;65.00;66.00;67.00;68.00;69.00;70.00;71.00;72.00;73.00;74.00;75.00;76.00;77.00;78.00;79.00;80.00;81.00;82.00;83.00;84.00;85.00;
		REF_OVERSCAN_FACTOR=1.00
		SCAN_CURVETYPE=CROSSPLANE_PROFILE
		SCAN_DEPTH=50.00
		SCAN_OFFAXIS_INPLANE=0.00
		SCAN_OFFAXIS_CROSSPLANE=0.00
		SCAN_ANGLE=0.00
		SCAN_DIAGONAL=NOT_DIAGONAL
		SCAN_DIRECTION=NEGATIVE
		MEAS_MEDIUM=WATER
		MEAS_PRESET=MEAS_CONTINUOUS_REFERENCE_SCAN
		MEAS_TIME=0.080
		MEAS_UNIT=A.U.
		INCLINATION_ANGLE=0.00
		PRESSURE=1013.25
		TEMPERATURE=20.00
		NORM_TEMPERATURE=20.00
		CORRECTION_FACTOR=1.0000
		EXPECTED_MAX_DOSE_RATE=3.00
		EPOM_DEPTH_SHIFT=0.2
		EPOM_MODE=SHIFT_PROTOCOL
		CORRECTIONS=SMOOTHED_CORR;SYMMETRY_CORR;INTERPOLATED_CORR;
		BEGIN_DATA
			-105.00		44.542E-03
			-104.50		45.088E-03
			-104.00		45.633E-03
			-103.50		46.301E-03
			-103.00		46.970E-03
			-102.50		47.497E-03
			-102.00		48.024E-03
			-101.50		48.735E-03
			-101.00		49.445E-03
			-100.50		50.089E-03
			-100.00		50.732E-03
			-99.50		51.324E-03
			-99.00		51.915E-03
			-98.50		52.831E-03
			-98.00		53.747E-03
			-97.50		54.334E-03
			-97.00		54.921E-03
			-96.50		55.734E-03
			-96.00		56.546E-03
			-95.50		57.545E-03
			-95.00		58.545E-03
			-94.50		59.519E-03
			-94.00		60.492E-03
			-93.50		61.329E-03
			-93.00		62.165E-03
			-92.50		63.229E-03
			-92.00		64.293E-03
			-91.50		65.552E-03
			-91.00		66.811E-03
			-90.50		67.951E-03
			-90.00		69.091E-03
			-89.50		70.497E-03
			-89.00		71.904E-03
			-88.50		72.983E-03
			-88.00		74.061E-03
			-87.50		75.526E-03
			-87.00		76.991E-03
			-86.50		78.480E-03
			-86.00		79.969E-03
			-85.50		81.480E-03
			-85.00		82.991E-03
			-84.50		84.949E-03
			-84.00		86.907E-03
			-83.50		88.751E-03
			-83.00		90.595E-03
			-82.50		93.070E-03
			-82.00		95.544E-03
			-81.50		98.267E-03
			-81.00		100.99E-03
			-80.50		104.05E-03
			-80.00		107.11E-03
			-79.50		110.90E-03
			-79.00		114.68E-03
			-78.50		119.87E-03
			-78.00		125.06E-03
			-77.50		132.24E-03
			-77.00		139.41E-03
			-76.50		150.09E-03
			-76.00		160.76E-03
			-75.50		179.75E-03
			-75.00		198.73E-03
			-74.50		234.44E-03
			-74.00		270.15E-03
			-73.50		326.56E-03
			-73.00		382.96E-03
			-72.50		455.04E-03
			-72.00		527.12E-03
			-71.50		608.04E-03
			-71.00		688.97E-03
			-70.50		765.78E-03
			-70.00		842.59E-03
			-69.50		905.35E-03
			-69.00		968.12E-03
			-68.50		1.0117E+00
			-68.00		1.0552E+00
			-67.50		1.0791E+00
			-67.00		1.1031E+00
			-66.50		1.1186E+00
			-66.00		1.1341E+00
			-65.50		1.1446E+00
			-65.00		1.1551E+00
			-64.50		1.1629E+00
			-64.00		1.1706E+00
			-63.50		1.1769E+00
			-63.00		1.1833E+00
			-62.50		1.1889E+00
			-62.00		1.1945E+00
			-61.50		1.1995E+00
			-61.00		1.2046E+00
			-60.50		1.2092E+00
			-60.00		1.2138E+00
			-59.50		1.2180E+00
			-59.00		1.2222E+00
			-58.50		1.2262E+00
			-58.00		1.2301E+00
			-57.50		1.2338E+00
			-57.00		1.2375E+00
			-56.50		1.2411E+00
			-56.00		1.2448E+00
			-55.50		1.2483E+00
			-55.00		1.2519E+00
			-54.50		1.2552E+00
			-54.00		1.2586E+00
			-53.50		1.2618E+00
			-53.00		1.2651E+00
			-52.50		1.2683E+00
			-52.00		1.2715E+00
			-51.50		1.2747E+00
			-51.00		1.2780E+00
			-50.50		1.2810E+00
			-50.00		1.2841E+00
			-49.50		1.2870E+00
			-49.00		1.2898E+00
			-48.50		1.2929E+00
			-48.00		1.2959E+00
			-47.50		1.2991E+00
			-47.00		1.3023E+00
			-46.50		1.3052E+00
			-46.00		1.3082E+00
			-45.50		1.3110E+00
			-45.00		1.3137E+00
			-44.50		1.3164E+00
			-44.00		1.3191E+00
			-43.50		1.3219E+00
			-43.00		1.3246E+00
			-42.50		1.3274E+00
			-42.00		1.3302E+00
			-41.50		1.3330E+00
			-41.00		1.3358E+00
			-40.50		1.3385E+00
			-40.00		1.3412E+00
			-39.50		1.3439E+00
			-39.00		1.3465E+00
			-38.50		1.3491E+00
			-38.00		1.3516E+00
			-37.50		1.3539E+00
			-37.00		1.3562E+00
			-36.50		1.3583E+00
			-36.00		1.3604E+00
			-35.50		1.3626E+00
			-35.00		1.3648E+00
			-34.50		1.3672E+00
			-34.00		1.3695E+00
			-33.50		1.3720E+00
			-33.00		1.3744E+00
			-32.50		1.3770E+00
			-32.00		1.3795E+00
			-31.50		1.3819E+00
			-31.00		1.3842E+00
			-30.50		1.3863E+00
			-30.00		1.3885E+00
			-29.50		1.3906E+00
			-29.00		1.3926E+00
			-28.50		1.3946E+00
			-28.00		1.3965E+00
			-27.50		1.3983E+00
			-27.00		1.4001E+00
			-26.50		1.4020E+00
			-26.00		1.4038E+00
			-25.50		1.4058E+00
			-25.00		1.4079E+00
			-24.50		1.4100E+00
			-24.00		1.4122E+00
			-23.50		1.4143E+00
			-23.00		1.4164E+00
			-22.50		1.4183E+00
			-22.00		1.4202E+00
			-21.50		1.4218E+00
			-21.00		1.4233E+00
			-20.50		1.4246E+00
			-20.00		1.4258E+00
			-19.50		1.4270E+00
			-19.00		1.4283E+00
			-18.50		1.4299E+00
			-18.00		1.4316E+00
			-17.50		1.4333E+00
			-17.00		1.4351E+00
			-16.50		1.4365E+00
			-16.00		1.4379E+00
			-15.50		1.4390E+00
			-15.00		1.4401E+00
			-14.50		1.4410E+00
			-14.00		1.4419E+00
			-13.50		1.4428E+00
			-13.00		1.4437E+00
			-12.50		1.4447E+00
			-12.00		1.4457E+00
			-11.50		1.4468E+00
			-11.00		1.4478E+00
			-10.50		1.4488E+00
			-10.00		1.4497E+00
			-9.50		1.4507E+00
			-9.00		1.4518E+00
			-8.50		1.4530E+00
			-8.00		1.4541E+00
			-7.50		1.4549E+00
			-7.00		1.4557E+00
			-6.50		1.4562E+00
			-6.00		1.4566E+00
			-5.50		1.4569E+00
			-5.00		1.4573E+00
			-4.50		1.4578E+00
			-4.00		1.4583E+00
			-3.50		1.4586E+00
			-3.00		1.4589E+00
			-2.50		1.4589E+00
			-2.00		1.4589E+00
			-1.50		1.4587E+00
			-1.00		1.4585E+00
