BEGIN_SCAN_DATA
	FORMAT=CC-Export V1.9                  
	FILE_CREATION_DATE=16-Apr-2022 16:58:48
	LAST_MODIFIED=16-Apr-2022 16:58:48
	BEGIN_SCAN  1
		TASK_NAME=tba PDD Profiles
		PROGRAM=WaterTankScans
		COMMENT=Average
		MEAS_DATE=15-Mar-2022 16:15:29
		LINAC=MRIdian
		MODALITY=X
		ISOCENTER=900.00
		INPLANE_AXIS=Y
		CROSSPLANE_AXIS=X
		DEPTH_AXIS=Depth
		INPLANE_AXIS_DIR=TARGET_GUN
		CROSSPLANE_AXIS_DIR=LEFT_RIGHT
		DEPTH_AXIS_DIR=UP_DOWN
		ENERGY=6.00
		NOMINAL_DMAX=15.00
		SSD=850.00
		SCD=450.00
		WEDGE_ANGLE=0.00
		FIELD_INPLANE=100.00
		FIELD_CROSSPLANE=100.00
		FIELD_TYPE=RECTANGULAR
		GANTRY=0.00
		GANTRY_UPRIGHT_POSITION=0
		GANTRY_ROTATION=CW
		COLL_ANGLE=0.00
		COLL_OFFSET_INPLANE=0.00
		COLL_OFFSET_CROSSPLANE=0.00
		SCAN_DEVICE=BeamScan
		SCAN_DEVICE_SETUP=BARA_LEFT_RIGHT
		ELECTROMETER=BeamScan
		RANGE_FIELD=LOW
		RANGE_REFERENCE=MEDIUM
		DETECTOR=THIMBLE_CHAMBER
		DETECTOR_RADIUS=2.40
		DETECTOR_NAME=A28MR
		DETECTOR_SN=-
		DETECTOR_CALIBRATION=588000000.00
		DETECTOR_IS_CALIBRATED=0
		DETECTOR_REFERENCE=THIMBLE_CHAMBER
		DETECTOR_REFERENCE_RADIUS=2.75
		DETECTOR_REFERENCE_NAME=A28MR
		DETECTOR_REFERENCE_SN=â€”
		DETECTOR_REFERENCE_IS_CALIBRATED=0
		DETECTOR_REFERENCE_CALIBRATION=303000000.00
		DETECTOR_HV=300.0
		DETECTOR_REFERENCE_HV=300.0
		DETECTOR_ORIENTATION=HORIZONTAL
		FILTER=FFF
		SCAN_SPEED_PROFILE=10.00
		SCAN_PROF_SPEED_DEP=DEPTH
		SCAN_SPEED_PDD=0.00
		SCAN_PDD_SPEED_DEP=ENERGY
		DETECTOR_TYPE=A28MR
		REF_FIELD_DEPTH=50.00
		REF_FIELD_DEFINED=ISOCENTER
		REF_FIELD_INPLANE=100.00
		REF_FIELD_CROSSPLANE=100.00
		REF_SCAN_POSITIONS=-85.00;-84.00;-83.00;-82.00;-81.00;-80.00;-79.00;-78.00;-77.00;-76.00;-75.00;-74.00;-73.00;-72.00;-71.00;-70.00;-69.00;-68.00;-67.00;-66.00;-65.00;-64.00;-63.00;-62.00;-61.00;-60.00;-59.00;-58.00;-57.00;-56.00;-55.00;-54.00;-53.00;-52.00;-51.00;-50.00;-49.00;-48.00;-47.00;-46.00;-45.00;-44.00;-43.00;-42.00;-41.00;-40.00;-39.00;-38.00;-37.00;-36.00;-35.00;-34.00;-33.00;-32.00;-31.00;-30.00;-29.00;-28.00;-27.00;-26.00;-25.00;-24.00;-23.00;-22.00;-21.00;-20.00;-19.00;-18.00;-17.00;-16.00;-15.00;-14.00;-13.00;-12.00;-11.00;-10.00;-9.00;-8.00;-7.00;-6.00;-5.00;-4.00;-3.00;-2.00;-1.00;0.00;1.00;2.00;3.00;4.00;5.00;6.00;7.00;8.00;9.00;10.00;11.00;12.00;13.00;14.00;15.00;16.00;17.00;18.00;19.00;20.00;21.00;22.00;23.00;24.00;25.00;26.00;27.00;28.00;29.00;30.00;31.00;32.00;33.00;34.00;35.00;36.00;37.00;38.00;39.00;40.00;41.00;42.00;43.00;44.00;45.00;46.00;47.00;48.00;49.00;50.00;51.00;52.00;53.00;54.00;55.00;56.00;57.00;58.00;59.00;60.00;61.00;62.00;63.00;64.00;65.00;66.00;67.00;68.00;69.00;70.00;71.00;72.00;73.00;74.00;75.00;76.00;77.00;78.00;79.00;80.00;81.00;82.00;83.00;84.00;85.00;
		REF_OVERSCAN_FACTOR=1.00
		SCAN_CURVETYPE=CROSSPLANE_PROFILE
		SCAN_DEPTH=20.00
		SCAN_OFFAXIS_INPLANE=0.00
		SCAN_OFFAXIS_CROSSPLANE=0.00
		SCAN_ANGLE=0.00
		SCAN_DIAGONAL=NOT_DIAGONAL
		SCAN_DIRECTION=POSITIVE
		MEAS_MEDIUM=WATER
		MEAS_PRESET=MEAS_CONTINUOUS_REFERENCE_SCAN
		MEAS_TIME=0.100
		MEAS_UNIT=A.U.
		INCLINATION_ANGLE=0.00
		PRESSURE=1013.25
		TEMPERATURE=20.00
		NORM_TEMPERATURE=20.00
		CORRECTION_FACTOR=1.0000
		EXPECTED_MAX_DOSE_RATE=3.00
		EPOM_DEPTH_SHIFT=0.2
		EPOM_MODE=SHIFT_PROTOCOL
		CORRECTIONS=SMOOTHED_CORR;CAX_CORR;INTERPOLATED_CORR;SYMMETRY_CORR;ADD_CURVES_CORR;MODIFIED_CORR;
		BEGIN_DATA
			-79.50		7.6039E+00
			-79.00		7.6039E+00
			-78.50		7.6039E+00
			-78.00		7.6039E+00
			-77.50		8.0512E+00
			-77.00		8.0512E+00
			-76.50		8.0512E+00
			-76.00		8.0512E+00
			-75.50		8.4985E+00
			-75.00		8.4985E+00
			-74.50		8.4985E+00
			-74.00		8.9458E+00
			-73.50		8.9458E+00
			-73.00		8.9458E+00
			-72.50		9.3931E+00
			-72.00		9.3931E+00
			-71.50		9.3931E+00
			-71.00		9.8404E+00
			-70.50		9.8404E+00
			-70.00		9.8404E+00
			-69.50		10.288E+00
			-69.00		10.288E+00
			-68.50		10.735E+00
			-68.00		10.735E+00
			-67.50		11.182E+00
			-67.00		11.182E+00
			-66.50		11.630E+00
			-66.00		11.630E+00
			-65.50		12.077E+00
			-65.00		12.077E+00
			-64.50		12.524E+00
			-64.00		12.971E+00
			-63.50		12.971E+00
			-63.00		13.419E+00
			-62.50		13.866E+00
			-62.00		13.866E+00
			-61.50		14.313E+00
			-61.00		14.761E+00
			-60.50		15.208E+00
			-60.00		15.655E+00
			-59.50		16.550E+00
			-59.00		16.997E+00
			-58.50		17.444E+00
			-58.00		18.339E+00
			-57.50		19.233E+00
			-57.00		20.128E+00
			-56.50		21.023E+00
			-56.00		22.365E+00
			-55.50		23.706E+00
			-55.00		25.048E+00
			-54.50		27.285E+00
			-54.00		29.968E+00
			-53.50		33.547E+00
			-53.00		37.572E+00
			-52.50		43.834E+00
			-52.00		50.991E+00
			-51.50		62.173E+00
			-51.00		74.250E+00
			-50.50		90.800E+00
			-50.00		108.24E+00
			-49.50		128.37E+00
			-49.00		149.39E+00
			-48.50		172.65E+00
			-48.00		196.36E+00
			-47.50		220.07E+00
			-47.00		243.77E+00
			-46.50		266.14E+00
			-46.00		287.61E+00
			-45.50		306.39E+00
			-45.00		324.29E+00
			-44.50		338.15E+00
			-44.00		351.57E+00
			-43.50		360.52E+00
			-43.00		369.01E+00
			-42.50		374.83E+00
			-42.00		380.20E+00
			-41.50		383.77E+00
			-41.00		387.80E+00
			-40.50		390.48E+00
			-40.00		393.17E+00
			-39.50		394.96E+00
			-39.00		397.19E+00
			-38.50		398.98E+00
			-38.00		401.22E+00
			-37.50		402.56E+00
			-37.00		403.90E+00
			-36.50		405.24E+00
			-36.00		406.59E+00
			-35.50		407.93E+00
			-35.00		409.27E+00
			-34.50		410.61E+00
			-34.00		411.51E+00
			-33.50		412.85E+00
			-33.00		413.74E+00
			-32.50		414.64E+00
			-32.00		415.53E+00
			-31.50		416.43E+00
			-31.00		417.32E+00
			-30.50		418.22E+00
			-30.00		419.56E+00
			-29.50		420.01E+00
			-29.00		420.90E+00
			-28.50		422.24E+00
			-28.00		423.14E+00
			-27.50		423.58E+00
			-27.00		424.03E+00
			-26.50		424.93E+00
			-26.00		426.27E+00
			-25.50		426.71E+00
			-25.00		427.16E+00
			-24.50		428.06E+00
			-24.00		429.40E+00
			-23.50		429.85E+00
			-23.00		430.29E+00
			-22.50		431.19E+00
			-22.00		431.63E+00
			-21.50		432.53E+00
			-21.00		433.42E+00
			-20.50		433.87E+00
			-20.00		434.77E+00
			-19.50		435.21E+00
			-19.00		435.66E+00
			-18.50		436.56E+00
			-18.00		437.00E+00
			-17.50		437.45E+00
			-17.00		437.90E+00
			-16.50		438.34E+00
			-16.00		438.79E+00
			-15.50		439.24E+00
			-15.00		440.13E+00
			-14.50		440.58E+00
			-14.00		441.03E+00
			-13.50		441.03E+00
			-13.00		441.48E+00
			-12.50		441.92E+00
			-12.00		441.92E+00
			-11.50		442.37E+00
			-11.00		442.82E+00
			-10.50		443.26E+00
			-10.00		443.71E+00
			-9.50		444.16E+00
			-9.00		444.61E+00
			-8.50		444.61E+00
			-8.00		444.61E+00
			-7.50		445.05E+00
			-7.00		445.50E+00
			-6.50		445.95E+00
			-6.00		445.95E+00
			-5.50		445.95E+00
			-5.00		446.40E+00
			-4.50		446.40E+00
			-4.00		446.40E+00
			-3.50		446.84E+00
			-3.00		447.29E+00
			-2.50		447.29E+00
			-2.00		447.29E+00
			-1.50		447.29E+00
			-1.00		447.29E+00
			-0.50		447.29E+00
			0.00		447.29E+00
			0.50		447.29E+00
			1.00		447.29E+00
			1.50		447.29E+00
			2.00		447.29E+00
			2.50		447.29E+00
			3.00		447.29E+00
			3.50		446.84E+00
			4.00		446.40E+00
			4.50		446.40E+00
			5.00		446.40E+00
			5.50		445.95E+00
			6.00		445.95E+00
			6.50		445.95E+00
			7.00		445.50E+00
			7.50		445.05E+00
			8.00		444.61E+00
			8.50		444.61E+00
			9.00		444.61E+00
			9.50		444.16E+00
			10.00		443.71E+00
			10.50		443.26E+00
			11.00		442.82E+00
			11.50		442.37E+00
			12.00		441.92E+00
			12.50		441.92E+00
			13.00		441.48E+00
			13.50		441.03E+00
			14.00		441.03E+00
			14.50		440.58E+00
			15.00		440.13E+00
			15.50		439.24E+00
			16.00		438.79E+00
			16.50		438.34E+00
			17.00		437.90E+00
			17.50		437.45E+00
			18.00		437.00E+00
			18.50		436.56E+00
			19.00		435.66E+00
			19.50		435.21E+00
			20.00		434.77E+00
			20.50		433.87E+00
			21.00		433.42E+00
			21.50		432.53E+00
			22.00		431.63E+00
			22.50		431.19E+00
			23.00		430.29E+00
			23.50		429.85E+00
			24.00		429.40E+00
			24.50		428.06E+00
			25.00		427.16E+00
			25.50		426.71E+00
			26.00		426.27E+00
			26.50		424.93E+00
			27.00		424.03E+00
			27.50		423.58E+00
			28.00		423.14E+00
			28.50		422.24E+00
			29.00		420.90E+00
			29.50		420.01E+00
			30.00		419.56E+00
			30.50		418.22E+00
			31.00		417.32E+00
			31.50		416.43E+00
			32.00		415.53E+00
			32.50		414.64E+00
			33.00		413.74E+00
			33.50		412.85E+00
			34.00		411.51E+00
			34.50		410.61E+00
			35.00		409.27E+00
			35.50		407.93E+00
			36.00		406.59E+00
			36.50		405.24E+00
			37.00		403.90E+00
			37.50		402.56E+00
			38.00		401.22E+00
			38.50		398.98E+00
			39.00		397.19E+00
			39.50		394.96E+00
			40.00		393.17E+00
			40.50		390.48E+00
			41.00		387.80E+00
			41.50		383.77E+00
			42.00		380.20E+00
			42.50		374.83E+00
			43.00		369.01E+00
			43.50		360.52E+00
			44.00		351.57E+00
			44.50		338.15E+00
			45.00		324.29E+00
			45.50		306.39E+00
			46.00		287.61E+00
			46.50		266.14E+00
			47.00		243.77E+00
			47.50		220.07E+00
			48.00		196.36E+00
			48.50		172.65E+00
			49.00		149.39E+00
			49.50		128.37E+00
			50.00		108.24E+00
			50.50		90.800E+00
			51.00		74.250E+00
			51.50		62.173E+00
			52.00		50.991E+00
			52.50		43.834E+00
			53.00		37.572E+00
			53.50		33.547E+00
			54.00		29.968E+00
			54.50		27.285E+00
			55.00		25.048E+00
			55.50		23.706E+00
			56.00		22.365E+00
			56.50		21.023E+00
			57.00		20.128E+00
			57.50		19.233E+00
			58.00		18.339E+00
			58.50		17.444E+00
			59.00		16.997E+00
			59.50		16.550E+00
			60.00		15.655E+00
			60.50		15.208E+00
			61.00		14.761E+00
			61.50		14.313E+00
			62.00		13.866E+00
			62.50		13.866E+00
			63.00		13.419E+00
			63.50		12.971E+00
			64.00		12.971E+00
			64.50		12.524E+00
			65.00		12.077E+00
			65.50		12.077E+00
			66.00		11.630E+00
			66.50		11.630E+00
			67.00		11.182E+00
			67.50		11.182E+00
			68.00		10.735E+00
			68.50		10.735E+00
			69.00		10.288E+00
			69.50		10.288E+00
			70.00		9.8404E+00
			70.50		9.8404E+00
			71.00		9.8404E+00
			71.50		9.3931E+00
			72.00		9.3931E+00
			72.50		9.3931E+00
			73.00		8.9458E+00
			73.50		8.9458E+00
			74.00		8.9458E+00
			74.50		8.4985E+00
			75.00		8.4985E+00
			75.50		8.4985E+00
			76.00		8.0512E+00
			76.50		8.0512E+00
			77.00		8.0512E+00
			77.50		8.0512E+00
			78.00		7.6039E+00
			78.50		7.6039E+00
			79.00		7.6039E+00
			79.50		7.6039E+00
		END_DATA
	END_SCAN  1
	BEGIN_SCAN  2
		TASK_NAME=tba PDD Profiles
		PROGRAM=WaterTankScans
		COMMENT=Average
		MEAS_DATE=15-Mar-2022 16:15:56
		LINAC=MRIdian
		MODALITY=X
		ISOCENTER=900.00
		INPLANE_AXIS=Y
		CROSSPLANE_AXIS=X
		DEPTH_AXIS=Depth
		INPLANE_AXIS_DIR=TARGET_GUN
		CROSSPLANE_AXIS_DIR=LEFT_RIGHT
		DEPTH_AXIS_DIR=UP_DOWN
		ENERGY=6.00
		NOMINAL_DMAX=15.00
		SSD=850.00
		SCD=450.00
		WEDGE_ANGLE=0.00
		FIELD_INPLANE=100.00
		FIELD_CROSSPLANE=100.00
		FIELD_TYPE=RECTANGULAR
		GANTRY=0.00
		GANTRY_UPRIGHT_POSITION=0
		GANTRY_ROTATION=CW
		COLL_ANGLE=0.00
		COLL_OFFSET_INPLANE=0.00
		COLL_OFFSET_CROSSPLANE=0.00
		SCAN_DEVICE=BeamScan
		SCAN_DEVICE_SETUP=BARA_LEFT_RIGHT
		ELECTROMETER=BeamScan
		RANGE_FIELD=LOW
		RANGE_REFERENCE=MEDIUM
		DETECTOR=THIMBLE_CHAMBER
		DETECTOR_RADIUS=2.40
		DETECTOR_NAME=A28MR
		DETECTOR_SN=-
		DETECTOR_CALIBRATION=588000000.00
		DETECTOR_IS_CALIBRATED=0
		DETECTOR_REFERENCE=THIMBLE_CHAMBER
		DETECTOR_REFERENCE_RADIUS=2.75
		DETECTOR_REFERENCE_NAME=A28MR
		DETECTOR_REFERENCE_SN=â€”
		DETECTOR_REFERENCE_IS_CALIBRATED=0
		DETECTOR_REFERENCE_CALIBRATION=303000000.00
		DETECTOR_HV=300.0
		DETECTOR_REFERENCE_HV=300.0
		DETECTOR_ORIENTATION=HORIZONTAL
		FILTER=FFF
		SCAN_SPEED_PROFILE=10.00
		SCAN_PROF_SPEED_DEP=DEPTH
		SCAN_SPEED_PDD=0.00
		SCAN_PDD_SPEED_DEP=ENERGY
		DETECTOR_TYPE=A28MR
		REF_FIELD_DEPTH=50.00
		REF_FIELD_DEFINED=ISOCENTER
		REF_FIELD_INPLANE=100.00
		REF_FIELD_CROSSPLANE=100.00
		REF_SCAN_POSITIONS=-85.00;-84.00;-83.00;-82.00;-81.00;-80.00;-79.00;-78.00;-77.00;-76.00;-75.00;-74.00;-73.00;-72.00;-71.00;-70.00;-69.00;-68.00;-67.00;-66.00;-65.00;-64.00;-63.00;-62.00;-61.00;-60.00;-59.00;-58.00;-57.00;-56.00;-55.00;-54.00;-53.00;-52.00;-51.00;-50.00;-49.00;-48.00;-47.00;-46.00;-45.00;-44.00;-43.00;-42.00;-41.00;-40.00;-39.00;-38.00;-37.00;-36.00;-35.00;-34.00;-33.00;-32.00;-31.00;-30.00;-29.00;-28.00;-27.00;-26.00;-25.00;-24.00;-23.00;-22.00;-21.00;-20.00;-19.00;-18.00;-17.00;-16.00;-15.00;-14.00;-13.00;-12.00;-11.00;-10.00;-9.00;-8.00;-7.00;-6.00;-5.00;-4.00;-3.00;-2.00;-1.00;0.00;1.00;2.00;3.00;4.00;5.00;6.00;7.00;8.00;9.00;10.00;11.00;12.00;13.00;14.00;15.00;16.00;17.00;18.00;19.00;20.00;21.00;22.00;23.00;24.00;25.00;26.00;27.00;28.00;29.00;30.00;31.00;32.00;33.00;34.00;35.00;36.00;37.00;38.00;39.00;40.00;41.00;42.00;43.00;44.00;45.00;46.00;47.00;48.00;49.00;50.00;51.00;52.00;53.00;54.00;55.00;56.00;57.00;58.00;59.00;60.00;61.00;62.00;63.00;64.00;65.00;66.00;67.00;68.00;69.00;70.00;71.00;72.00;73.00;74.00;75.00;76.00;77.00;78.00;79.00;80.00;81.00;82.00;83.00;84.00;85.00;
		REF_OVERSCAN_FACTOR=1.00
		SCAN_CURVETYPE=CROSSPLANE_PROFILE
		SCAN_DEPTH=55.00
		SCAN_OFFAXIS_INPLANE=0.00
		SCAN_OFFAXIS_CROSSPLANE=0.00
		SCAN_ANGLE=0.00
		SCAN_DIAGONAL=NOT_DIAGONAL
		SCAN_DIRECTION=POSITIVE
		MEAS_MEDIUM=WATER
		MEAS_PRESET=MEAS_CONTINUOUS_REFERENCE_SCAN
		MEAS_TIME=0.100
		MEAS_UNIT=A.U.
		INCLINATION_ANGLE=0.00
		PRESSURE=1013.25
		TEMPERATURE=20.00
		NORM_TEMPERATURE=20.00
		CORRECTION_FACTOR=1.0000
		EXPECTED_MAX_DOSE_RATE=3.00
		EPOM_DEPTH_SHIFT=0.2
		EPOM_MODE=SHIFT_PROTOCOL
		CORRECTIONS=CAX_CORR;INTERPOLATED_CORR;SYMMETRY_CORR;ADD_CURVES_CORR;MODIFIED_CORR;
		BEGIN_DATA
			-80.00		11.182E+00
			-79.50		11.182E+00
			-79.00		11.630E+00
			-78.50		11.630E+00
			-78.00		11.630E+00
			-77.50		12.077E+00
			-77.00		12.077E+00
			-76.50		12.524E+00
			-76.00		12.524E+00
			-75.50		12.971E+00
			-75.00		12.971E+00
			-74.50		13.419E+00
			-74.00		13.419E+00
			-73.50		13.866E+00
			-73.00		13.866E+00
			-72.50		14.313E+00
			-72.00		14.313E+00
			-71.50		14.761E+00
			-71.00		15.208E+00
			-70.50		15.208E+00
			-70.00		15.655E+00
			-69.50		15.655E+00
			-69.00		16.102E+00
			-68.50		16.550E+00
			-68.00		16.997E+00
			-67.50		17.444E+00
			-67.00		17.892E+00
			-66.50		17.892E+00
			-66.00		18.339E+00
			-65.50		18.786E+00
			-65.00		19.233E+00
			-64.50		19.681E+00
			-64.00		20.128E+00
			-63.50		20.575E+00
			-63.00		21.470E+00
			-62.50		21.917E+00
			-62.00		22.364E+00
			-61.50		23.259E+00
			-61.00		23.706E+00
			-60.50		24.601E+00
			-60.00		25.496E+00
			-59.50		26.390E+00
			-59.00		27.285E+00
			-58.50		28.179E+00
			-58.00		29.521E+00
			-57.50		30.863E+00
			-57.00		32.652E+00
			-56.50		34.441E+00
			-56.00		36.678E+00
			-55.50		40.256E+00
			-55.00		43.834E+00
			-54.50		49.202E+00
			-54.00		55.911E+00
			-53.50		64.410E+00
			-53.00		74.697E+00
			-52.50		87.669E+00
			-52.00		101.98E+00
			-51.50		118.08E+00
			-51.00		135.08E+00
			-50.50		153.42E+00
			-50.00		172.65E+00
			-49.50		191.89E+00
			-49.00		211.12E+00
			-48.50		229.91E+00
			-48.00		247.80E+00
			-47.50		264.35E+00
			-47.00		280.00E+00
			-46.50		292.97E+00
			-46.00		305.05E+00
			-45.50		313.55E+00
			-45.00		322.05E+00
			-44.50		327.86E+00
			-44.00		333.23E+00
			-43.50		337.70E+00
			-43.00		341.73E+00
			-42.50		344.41E+00
			-42.00		347.10E+00
			-41.50		349.33E+00
			-41.00		351.57E+00
			-40.50		353.36E+00
			-40.00		355.15E+00
			-39.50		356.49E+00
			-39.00		357.83E+00
			-38.50		359.62E+00
			-38.00		360.96E+00
			-37.50		362.30E+00
			-37.00		363.65E+00
			-36.50		364.54E+00
			-36.00		365.88E+00
			-35.50		366.78E+00
			-35.00		368.12E+00
			-34.50		369.01E+00
			-34.00		369.91E+00
			-33.50		371.25E+00
			-33.00		372.15E+00
			-32.50		373.04E+00
			-32.00		373.93E+00
			-31.50		374.83E+00
			-31.00		376.17E+00
			-30.50		377.07E+00
			-30.00		377.96E+00
			-29.50		378.41E+00
			-29.00		379.30E+00
			-28.50		380.20E+00
			-28.00		381.09E+00
			-27.50		381.99E+00
			-27.00		382.88E+00
			-26.50		383.33E+00
			-26.00		383.77E+00
			-25.50		384.67E+00
			-25.00		385.56E+00
			-24.50		386.01E+00
			-24.00		386.46E+00
			-23.50		387.35E+00
			-23.00		387.80E+00
			-22.50		388.69E+00
			-22.00		389.59E+00
			-21.50		390.04E+00
			-21.00		390.48E+00
			-20.50		390.93E+00
			-20.00		391.83E+00
			-19.50		392.27E+00
			-19.00		392.72E+00
			-18.50		393.62E+00
			-18.00		394.06E+00
			-17.50		394.51E+00
			-17.00		394.51E+00
			-16.50		394.96E+00
			-16.00		395.85E+00
			-15.50		396.30E+00
			-15.00		396.30E+00
			-14.50		397.19E+00
			-14.00		397.64E+00
			-13.50		397.64E+00
			-13.00		398.09E+00
			-12.50		398.54E+00
			-12.00		398.54E+00
			-11.50		398.98E+00
			-11.00		399.43E+00
			-10.50		399.43E+00
			-10.00		399.88E+00
			-9.50		399.88E+00
			-9.00		400.32E+00
			-8.50		400.77E+00
			-8.00		401.22E+00
			-7.50		401.67E+00
			-7.00		402.11E+00
			-6.50		402.11E+00
			-6.00		402.11E+00
			-5.50		402.56E+00
			-5.00		402.56E+00
			-4.50		402.56E+00
			-4.00		403.01E+00
			-3.50		403.01E+00
			-3.00		403.01E+00
			-2.50		403.46E+00
			-2.00		403.46E+00
			-1.50		403.46E+00
			-1.00		403.46E+00
			-0.50		403.46E+00
			0.00		403.46E+00
			0.50		403.46E+00
			1.00		403.46E+00
			1.50		403.46E+00
			2.00		403.46E+00
			2.50		403.46E+00
			3.00		403.01E+00
			3.50		403.01E+00
			4.00		403.01E+00
			4.50		402.56E+00
			5.00		402.56E+00
			5.50		402.56E+00
			6.00		402.11E+00
			6.50		402.11E+00
			7.00		402.11E+00
			7.50		401.67E+00
			8.00		401.22E+00
			8.50		400.77E+00
			9.00		400.32E+00
			9.50		399.88E+00
			10.00		399.88E+00
			10.50		399.43E+00
			11.00		399.43E+00
			11.50		398.98E+00
			12.00		398.54E+00
			12.50		398.54E+00
			13.00		398.09E+00
			13.50		397.64E+00
			14.00		397.64E+00
			14.50		397.19E+00
			15.00		396.30E+00
			15.50		396.30E+00
			16.00		395.85E+00
			16.50		394.96E+00
			17.00		394.51E+00
			17.50		394.51E+00
			18.00		394.06E+00
			18.50		393.62E+00
			19.00		392.72E+00
			19.50		392.27E+00
			20.00		391.83E+00
			20.50		390.93E+00
			21.00		390.48E+00
			21.50		390.04E+00
			22.00		389.59E+00
			22.50		388.69E+00
			23.00		387.80E+00
			23.50		387.35E+00
			24.00		386.46E+00
			24.50		386.01E+00
			25.00		385.56E+00
			25.50		384.67E+00
			26.00		383.77E+00
			26.50		383.33E+00
			27.00		382.88E+00
			27.50		381.99E+00
			28.00		381.09E+00
			28.50		380.20E+00
			29.00		379.30E+00
			29.50		378.41E+00
			30.00		377.96E+00
			30.50		377.07E+00
			31.00		376.17E+00
			31.50		374.83E+00
			32.00		373.93E+00
			32.50		373.04E+00
			33.00		372.15E+00
			33.50		371.25E+00
			34.00		369.91E+00
			34.50		369.01E+00
			35.00		368.12E+00
			35.50		366.78E+00
			36.00		365.88E+00
			36.50		364.54E+00
			37.00		363.65E+00
			37.50		362.30E+00
			38.00		360.96E+00
			38.50		359.62E+00
			39.00		357.83E+00
			39.50		356.49E+00
			40.00		355.15E+00
			40.50		353.36E+00
			41.00		351.57E+00
			41.50		349.33E+00
			42.00		347.10E+00
			42.50		344.41E+00
			43.00		341.73E+00
			43.50		337.70E+00
			44.00		333.23E+00
			44.50		327.86E+00
			45.00		322.05E+00
			45.50		313.55E+00
			46.00		305.05E+00
			46.50		292.97E+00
			47.00		280.00E+00
			47.50		264.35E+00
			48.00		247.80E+00
			48.50		229.91E+00
			49.00		211.12E+00
			49.50		191.89E+00
			50.00		172.65E+00
			50.50		153.42E+00
			51.00		135.08E+00
			51.50		118.08E+00
			52.00		101.98E+00
			52.50		87.669E+00
			53.00		74.697E+00
			53.50		64.410E+00
			54.00		55.911E+00
			54.50		49.202E+00
			55.00		43.834E+00
			55.50		40.256E+00
			56.00		36.678E+00
			56.50		34.441E+00
			57.00		32.652E+00
			57.50		30.863E+00
			58.00		29.521E+00
			58.50		28.179E+00
			59.00		27.285E+00
			59.50		26.390E+00
			60.00		25.496E+00
			60.50		24.601E+00
			61.00		23.706E+00
			61.50		23.259E+00
			62.00		22.364E+00
			62.50		21.917E+00
			63.00		21.470E+00
			63.50		20.575E+00
			64.00		20.128E+00
			64.50		19.681E+00
			65.00		19.233E+00
			65.50		18.786E+00
			66.00		18.339E+00
			66.50		17.892E+00
			67.00		17.892E+00
			67.50		17.444E+00
			68.00		16.997E+00
			68.50		16.550E+00
			69.00		16.102E+00
			69.50		15.655E+00
			70.00		15.655E+00
			70.50		15.208E+00
			71.00		15.208E+00
			71.50		14.761E+00
			72.00		14.313E+00
			72.50		14.313E+00
			73.00		13.866E+00
			73.50		13.866E+00
			74.00		13.419E+00
			74.50		13.419E+00
			75.00		12.971E+00
			75.50		12.971E+00
			76.00		12.524E+00
