BEGIN_SCAN_DATA
	FORMAT=CC-Export V1.9                  
	FILE_CREATION_DATE=30-Oct-2022 19:08:42
	LAST_MODIFIED=30-Oct-2022 19:08:42
	BEGIN_SCAN  1
		TASK_NAME=tba PDD Profiles
		PROGRAM=WaterTankScans
		COMMENT=Gemelli
		MEAS_DATE=08-Feb-2021 09:38:10
		LINAC=MRIdian
		MODALITY=X
		ISOCENTER=900.00
		INPLANE_AXIS=Y
		CROSSPLANE_AXIS=X
		DEPTH_AXIS=Depth
		INPLANE_AXIS_DIR=TARGET_GUN
		CROSSPLANE_AXIS_DIR=LEFT_RIGHT
		DEPTH_AXIS_DIR=UP_DOWN
		ENERGY=6.00
		NOMINAL_DMAX=15.00
		SSD=850.00
		SCD=450.00
		WEDGE_ANGLE=0.00
		FIELD_INPLANE=66.40
		FIELD_CROSSPLANE=66.40
		FIELD_TYPE=RECTANGULAR
		GANTRY=0.00
		GANTRY_UPRIGHT_POSITION=0
		GANTRY_ROTATION=CW
		COLL_ANGLE=0.00
		COLL_OFFSET_INPLANE=0.00
		COLL_OFFSET_CROSSPLANE=0.00
		SCAN_DEVICE=BeamScan
		SCAN_DEVICE_SETUP=BARA_LEFT_RIGHT
		ELECTROMETER=BeamScan
		RANGE_FIELD=LOW
		RANGE_REFERENCE=MEDIUM
		DETECTOR=THIMBLE_CHAMBER
		DETECTOR_RADIUS=2.40
		DETECTOR_NAME=A28MR
		DETECTOR_SN=-
		DETECTOR_CALIBRATION=588000000.00
		DETECTOR_IS_CALIBRATED=0
		DETECTOR_REFERENCE=THIMBLE_CHAMBER
		DETECTOR_REFERENCE_RADIUS=2.75
		DETECTOR_REFERENCE_NAME=A28MR
		DETECTOR_REFERENCE_SN=Ã¢â‚¬â€
		DETECTOR_REFERENCE_IS_CALIBRATED=0
		DETECTOR_REFERENCE_CALIBRATION=303000000.00
		DETECTOR_HV=300.0
		DETECTOR_REFERENCE_HV=300.0
		DETECTOR_ORIENTATION=HORIZONTAL
		FILTER=FFF
		SCAN_SPEED_PROFILE=10.00
		SCAN_PROF_SPEED_DEP=DEPTH
		SCAN_SPEED_PDD=0.00
		SCAN_PDD_SPEED_DEP=ENERGY
		DETECTOR_TYPE=A28MR
		REF_FIELD_DEPTH=220.00
		REF_FIELD_DEFINED=ISOCENTER
		REF_FIELD_INPLANE=100.00
		REF_FIELD_CROSSPLANE=100.00
		REF_SCAN_POSITIONS=-85.00;-84.00;-83.00;-82.00;-81.00;-80.00;-79.00;-78.00;-77.00;-76.00;-75.00;-74.00;-73.00;-72.00;-71.00;-70.00;-69.00;-68.00;-67.00;-66.00;-65.00;-64.00;-63.00;-62.00;-61.00;-60.00;-59.00;-58.00;-57.00;-56.00;-55.00;-54.00;-53.00;-52.00;-51.00;-50.00;-49.00;-48.00;-47.00;-46.00;-45.00;-44.00;-43.00;-42.00;-41.00;-40.00;-39.00;-38.00;-37.00;-36.00;-35.00;-34.00;-33.00;-32.00;-31.00;-30.00;-29.00;-28.00;-27.00;-26.00;-25.00;-24.00;-23.00;-22.00;-21.00;-20.00;-19.00;-18.00;-17.00;-16.00;-15.00;-14.00;-13.00;-12.00;-11.00;-10.00;-9.00;-8.00;-7.00;-6.00;-5.00;-4.00;-3.00;-2.00;-1.00;0.00;1.00;2.00;3.00;4.00;5.00;6.00;7.00;8.00;9.00;10.00;11.00;12.00;13.00;14.00;15.00;16.00;17.00;18.00;19.00;20.00;21.00;22.00;23.00;24.00;25.00;26.00;27.00;28.00;29.00;30.00;31.00;32.00;33.00;34.00;35.00;36.00;37.00;38.00;39.00;40.00;41.00;42.00;43.00;44.00;45.00;46.00;47.00;48.00;49.00;50.00;51.00;52.00;53.00;54.00;55.00;56.00;57.00;58.00;59.00;60.00;61.00;62.00;63.00;64.00;65.00;66.00;67.00;68.00;69.00;70.00;71.00;72.00;73.00;74.00;75.00;76.00;77.00;78.00;79.00;80.00;81.00;82.00;83.00;84.00;85.00;
		REF_OVERSCAN_FACTOR=1.00
		SCAN_CURVETYPE=INPLANE_PROFILE
		SCAN_DEPTH=20.00
		SCAN_OFFAXIS_INPLANE=0.00
		SCAN_OFFAXIS_CROSSPLANE=0.00
		SCAN_ANGLE=0.00
		SCAN_DIAGONAL=NOT_DIAGONAL
		SCAN_DIRECTION=POSITIVE
		MEAS_MEDIUM=WATER
		MEAS_PRESET=MEAS_CONTINUOUS_REFERENCE_SCAN
		MEAS_TIME=0.100
		MEAS_UNIT=A.U.
		INCLINATION_ANGLE=0.00
		PRESSURE=1013.25
		TEMPERATURE=20.00
		NORM_TEMPERATURE=20.00
		CORRECTION_FACTOR=1.0000
		EXPECTED_MAX_DOSE_RATE=3.00
		EPOM_DEPTH_SHIFT=0.2
		EPOM_MODE=SHIFT_PROTOCOL
		CORRECTIONS=MODIFIED_CORR;SMOOTHED_CORR;CAX_CORR;INTERPOLATED_CORR;
		BEGIN_DATA
			-60.00		5.4500E+00
			-59.50		5.4500E+00
			-59.00		5.5911E+00
			-58.50		5.7987E+00
			-58.00		5.8692E+00
			-57.50		5.8692E+00
			-57.00		6.0076E+00
			-56.50		6.2172E+00
			-56.00		6.2885E+00
			-55.50		6.2885E+00
			-55.00		6.4240E+00
			-54.50		6.6357E+00
			-54.00		6.8460E+00
			-53.50		7.0556E+00
			-53.00		7.2653E+00
			-52.50		7.4749E+00
			-52.00		7.5461E+00
			-51.50		7.5461E+00
			-51.00		7.6845E+00
			-50.50		7.8941E+00
			-50.00		8.2421E+00
			-49.50		8.6613E+00
			-49.00		8.9422E+00
			-48.50		9.1518E+00
			-48.00		9.3614E+00
			-47.50		9.5710E+00
			-47.00		9.9162E+00
			-46.50		10.331E+00
			-46.00		10.749E+00
			-45.50		11.168E+00
			-45.00		11.588E+00
			-44.50		12.007E+00
			-44.00		12.564E+00
			-43.50		13.199E+00
			-43.00		13.826E+00
			-42.50		14.449E+00
			-42.00		15.210E+00
			-41.50		16.048E+00
			-41.00		17.163E+00
			-40.50		18.433E+00
			-40.00		19.972E+00
			-39.50		21.649E+00
			-39.00		24.018E+00
			-38.50		26.743E+00
			-38.00		31.266E+00
			-37.50		36.716E+00
			-37.00		45.071E+00
			-36.50		54.923E+00
			-36.00		67.957E+00
			-35.50		82.630E+00
			-35.00		99.262E+00
			-34.50		116.90E+00
			-34.00		136.40E+00
			-33.50		156.94E+00
			-33.00		177.89E+00
			-32.50		199.06E+00
			-32.00		219.82E+00
			-31.50		240.36E+00
			-31.00		258.85E+00
			-30.50		276.29E+00
			-30.00		292.18E+00
			-29.50		307.22E+00
			-29.00		320.35E+00
			-28.50		332.51E+00
			-28.00		342.45E+00
			-27.50		351.26E+00
			-27.00		358.95E+00
			-26.50		366.08E+00
			-26.00		371.96E+00
			-25.50		377.20E+00
			-25.00		381.47E+00
			-24.50		385.25E+00
			-24.00		388.61E+00
			-23.50		391.75E+00
			-23.00		394.03E+00
			-22.50		395.87E+00
			-22.00		397.55E+00
			-21.50		399.14E+00
			-21.00		400.57E+00
			-20.50		401.91E+00
			-20.00		403.12E+00
			-19.50		404.26E+00
			-19.00		405.28E+00
			-18.50		406.24E+00
			-18.00		407.10E+00
			-17.50		407.91E+00
			-17.00		408.68E+00
			-16.50		409.41E+00
			-16.00		410.11E+00
			-15.50		410.78E+00
			-15.00		411.40E+00
			-14.50		412.00E+00
			-14.00		412.58E+00
			-13.50		413.16E+00
			-13.00		413.71E+00
			-12.50		414.26E+00
			-12.00		414.77E+00
			-11.50		415.26E+00
			-11.00		415.70E+00
			-10.50		416.12E+00
			-10.00		416.51E+00
			-9.50		416.89E+00
			-9.00		417.27E+00
			-8.50		417.65E+00
			-8.00		418.03E+00
			-7.50		418.41E+00
			-7.00		418.74E+00
			-6.50		419.04E+00
			-6.00		419.26E+00
			-5.50		419.43E+00
			-5.00		419.54E+00
			-4.50		419.62E+00
			-4.00		419.69E+00
			-3.50		419.76E+00
			-3.00		419.81E+00
			-2.50		419.87E+00
			-2.00		419.85E+00
			-1.50		419.80E+00
			-1.00		419.69E+00
			-0.50		419.54E+00
			0.00		419.41E+00
			0.50		419.28E+00
			1.00		419.14E+00
			1.50		418.99E+00
			2.00		418.81E+00
			2.50		418.60E+00
			3.00		418.39E+00
			3.50		418.18E+00
			4.00		417.97E+00
			4.50		417.76E+00
			5.00		417.50E+00
			5.50		417.21E+00
			6.00		416.90E+00
			6.50		416.57E+00
			7.00		416.28E+00
			7.50		416.00E+00
			8.00		415.76E+00
			8.50		415.54E+00
			9.00		415.31E+00
			9.50		415.09E+00
			10.00		414.84E+00
			10.50		414.56E+00
			11.00		414.24E+00
			11.50		413.88E+00
			12.00		413.49E+00
			12.50		413.07E+00
			13.00		412.62E+00
			13.50		412.14E+00
			14.00		411.65E+00
			14.50		411.14E+00
			15.00		410.61E+00
			15.50		410.07E+00
			16.00		409.51E+00
			16.50		408.93E+00
			17.00		408.33E+00
			17.50		407.70E+00
			18.00		407.04E+00
			18.50		406.36E+00
			19.00		405.64E+00
			19.50		404.90E+00
			20.00		404.12E+00
			20.50		403.30E+00
			21.00		402.40E+00
			21.50		401.46E+00
			22.00		400.39E+00
			22.50		399.25E+00
			23.00		397.92E+00
			23.50		396.47E+00
			24.00		394.82E+00
			24.50		393.07E+00
			25.00		390.69E+00
			25.50		387.94E+00
			26.00		384.40E+00
			26.50		380.42E+00
			27.00		374.47E+00
			27.50		367.41E+00
			28.00		357.64E+00
			28.50		346.21E+00
			29.00		332.43E+00
			29.50		317.34E+00
			30.00		300.10E+00
			30.50		281.66E+00
			31.00		261.87E+00
			31.50		241.33E+00
			32.00		220.38E+00
			32.50		199.21E+00
			33.00		178.86E+00
			33.50		158.95E+00
			34.00		140.84E+00
			34.50		123.65E+00
			35.00		108.40E+00
			35.50		94.142E+00
			36.00		81.964E+00
			36.50		70.854E+00
			37.00		61.681E+00
			37.50		53.506E+00
			38.00		46.755E+00
			38.50		40.736E+00
			39.00		35.752E+00
			39.50		31.350E+00
			40.00		27.868E+00
			40.50		24.904E+00
			41.00		22.513E+00
			41.50		20.417E+00
			42.00		18.882E+00
			42.50		17.637E+00
			43.00		16.511E+00
			43.50		15.452E+00
			44.00		14.677E+00
			44.50		14.048E+00
			45.00		13.420E+00
			45.50		12.791E+00
			46.00		12.300E+00
			46.50		11.881E+00
			47.00		11.601E+00
			47.50		11.394E+00
			48.00		11.048E+00
			48.50		10.625E+00
			49.00		10.344E+00
			49.50		10.136E+00
			50.00		9.9274E+00
			50.50		9.7178E+00
			51.00		9.3740E+00
			51.50		8.9548E+00
			52.00		8.6697E+00
			52.50		8.4601E+00
			53.00		8.2504E+00
			53.50		8.0408E+00
			54.00		7.9654E+00
			54.50		7.9654E+00
			55.00		7.8299E+00
			55.50		7.6181E+00
			56.00		7.4078E+00
			56.50		7.1982E+00
			57.00		6.9899E+00
			57.50		6.7824E+00
			58.00		6.7077E+00
			58.50		6.7077E+00
			59.00		6.5693E+00
			59.50		6.3597E+00
		END_DATA
	END_SCAN  1
	BEGIN_SCAN  2
		TASK_NAME=tba PDD Profiles
		PROGRAM=WaterTankScans
		COMMENT=Gemelli
		MEAS_DATE=08-Feb-2021 09:38:10
		LINAC=MRIdian
		MODALITY=X
		ISOCENTER=900.00
		INPLANE_AXIS=Y
		CROSSPLANE_AXIS=X
		DEPTH_AXIS=Depth
		INPLANE_AXIS_DIR=TARGET_GUN
		CROSSPLANE_AXIS_DIR=LEFT_RIGHT
		DEPTH_AXIS_DIR=UP_DOWN
		ENERGY=6.00
		NOMINAL_DMAX=15.00
		SSD=850.00
		SCD=450.00
		WEDGE_ANGLE=0.00
		FIELD_INPLANE=66.40
		FIELD_CROSSPLANE=66.40
		FIELD_TYPE=RECTANGULAR
		GANTRY=0.00
		GANTRY_UPRIGHT_POSITION=0
		GANTRY_ROTATION=CW
		COLL_ANGLE=0.00
		COLL_OFFSET_INPLANE=0.00
		COLL_OFFSET_CROSSPLANE=0.00
		SCAN_DEVICE=BeamScan
		SCAN_DEVICE_SETUP=BARA_LEFT_RIGHT
		ELECTROMETER=BeamScan
		RANGE_FIELD=LOW
		RANGE_REFERENCE=MEDIUM
		DETECTOR=THIMBLE_CHAMBER
		DETECTOR_RADIUS=2.40
		DETECTOR_NAME=A28MR
		DETECTOR_SN=-
		DETECTOR_CALIBRATION=588000000.00
		DETECTOR_IS_CALIBRATED=0
		DETECTOR_REFERENCE=THIMBLE_CHAMBER
		DETECTOR_REFERENCE_RADIUS=2.75
		DETECTOR_REFERENCE_NAME=A28MR
		DETECTOR_REFERENCE_SN=Ã¢â‚¬â€
		DETECTOR_REFERENCE_IS_CALIBRATED=0
		DETECTOR_REFERENCE_CALIBRATION=303000000.00
		DETECTOR_HV=300.0
		DETECTOR_REFERENCE_HV=300.0
		DETECTOR_ORIENTATION=HORIZONTAL
		FILTER=FFF
		SCAN_SPEED_PROFILE=10.00
		SCAN_PROF_SPEED_DEP=DEPTH
		SCAN_SPEED_PDD=0.00
		SCAN_PDD_SPEED_DEP=ENERGY
		DETECTOR_TYPE=A28MR
		REF_FIELD_DEPTH=220.00
		REF_FIELD_DEFINED=ISOCENTER
		REF_FIELD_INPLANE=100.00
		REF_FIELD_CROSSPLANE=100.00
		REF_SCAN_POSITIONS=-85.00;-84.00;-83.00;-82.00;-81.00;-80.00;-79.00;-78.00;-77.00;-76.00;-75.00;-74.00;-73.00;-72.00;-71.00;-70.00;-69.00;-68.00;-67.00;-66.00;-65.00;-64.00;-63.00;-62.00;-61.00;-60.00;-59.00;-58.00;-57.00;-56.00;-55.00;-54.00;-53.00;-52.00;-51.00;-50.00;-49.00;-48.00;-47.00;-46.00;-45.00;-44.00;-43.00;-42.00;-41.00;-40.00;-39.00;-38.00;-37.00;-36.00;-35.00;-34.00;-33.00;-32.00;-31.00;-30.00;-29.00;-28.00;-27.00;-26.00;-25.00;-24.00;-23.00;-22.00;-21.00;-20.00;-19.00;-18.00;-17.00;-16.00;-15.00;-14.00;-13.00;-12.00;-11.00;-10.00;-9.00;-8.00;-7.00;-6.00;-5.00;-4.00;-3.00;-2.00;-1.00;0.00;1.00;2.00;3.00;4.00;5.00;6.00;7.00;8.00;9.00;10.00;11.00;12.00;13.00;14.00;15.00;16.00;17.00;18.00;19.00;20.00;21.00;22.00;23.00;24.00;25.00;26.00;27.00;28.00;29.00;30.00;31.00;32.00;33.00;34.00;35.00;36.00;37.00;38.00;39.00;40.00;41.00;42.00;43.00;44.00;45.00;46.00;47.00;48.00;49.00;50.00;51.00;52.00;53.00;54.00;55.00;56.00;57.00;58.00;59.00;60.00;61.00;62.00;63.00;64.00;65.00;66.00;67.00;68.00;69.00;70.00;71.00;72.00;73.00;74.00;75.00;76.00;77.00;78.00;79.00;80.00;81.00;82.00;83.00;84.00;85.00;
		REF_OVERSCAN_FACTOR=1.00
		SCAN_CURVETYPE=INPLANE_PROFILE
		SCAN_DEPTH=55.00
		SCAN_OFFAXIS_INPLANE=0.00
		SCAN_OFFAXIS_CROSSPLANE=0.00
		SCAN_ANGLE=0.00
		SCAN_DIAGONAL=NOT_DIAGONAL
		SCAN_DIRECTION=POSITIVE
		MEAS_MEDIUM=WATER
		MEAS_PRESET=MEAS_CONTINUOUS_REFERENCE_SCAN
		MEAS_TIME=0.100
		MEAS_UNIT=A.U.
		INCLINATION_ANGLE=0.00
		PRESSURE=1013.25
		TEMPERATURE=20.00
		NORM_TEMPERATURE=20.00
		CORRECTION_FACTOR=1.0000
		EXPECTED_MAX_DOSE_RATE=3.00
		EPOM_DEPTH_SHIFT=0.2
		EPOM_MODE=SHIFT_PROTOCOL
		CORRECTIONS=MODIFIED_CORR;SMOOTHED_CORR;CAX_CORR;INTERPOLATED_CORR;
		BEGIN_DATA
			-60.00		8.3898E+00
			-59.50		8.3898E+00
			-59.00		8.4231E+00
			-58.50		8.6307E+00
			-58.00		8.8093E+00
			-57.50		8.8093E+00
			-57.00		8.8387E+00
			-56.50		9.0484E+00
			-56.00		9.2870E+00
			-55.50		9.7023E+00
			-55.00		10.093E+00
			-54.50		10.305E+00
			-54.00		10.516E+00
			-53.50		10.724E+00
			-53.00		10.932E+00
			-52.50		11.144E+00
			-52.00		11.356E+00
			-51.50		11.565E+00
			-51.00		11.805E+00
			-50.50		12.224E+00
			-50.00		12.643E+00
			-49.50		13.063E+00
			-49.00		13.482E+00
			-48.50		13.902E+00
			-48.00		14.321E+00
			-47.50		14.741E+00
			-47.00		15.160E+00
			-46.50		15.580E+00
			-46.00		16.028E+00
			-45.50		16.651E+00
			-45.00		17.275E+00
			-44.50		17.904E+00
			-44.00		18.559E+00
			-43.50		19.407E+00
			-43.00		20.281E+00
			-42.50		21.319E+00
			-42.00		22.409E+00
			-41.50		23.877E+00
			-41.00		25.424E+00
			-40.50		27.542E+00
			-40.00		29.864E+00
			-39.50		33.429E+00
			-39.00		37.377E+00
			-38.50		43.669E+00
			-38.00		50.490E+00
			-37.50		60.558E+00
			-37.00		71.007E+00
			-36.50		83.802E+00
			-36.00		96.890E+00
			-35.50		111.78E+00
			-35.00		126.80E+00
			-34.50		142.58E+00
			-34.00		158.38E+00
			-33.50		174.27E+00
			-33.00		189.97E+00
			-32.50		204.50E+00
			-32.00		218.80E+00
			-31.50		231.30E+00
			-31.00		243.50E+00
			-30.50		253.88E+00
			-30.00		263.98E+00
			-29.50		271.95E+00
			-29.00		279.72E+00
			-28.50		286.08E+00
			-28.00		292.22E+00
			-27.50		297.05E+00
			-27.00		301.75E+00
			-26.50		305.69E+00
			-26.00		309.47E+00
			-25.50		311.98E+00
			-25.00		314.48E+00
			-24.50		316.81E+00
			-24.00		319.05E+00
			-23.50		320.73E+00
			-23.00		322.34E+00
			-22.50		323.57E+00
			-22.00		324.78E+00
			-21.50		325.90E+00
			-21.00		327.01E+00
			-20.50		327.96E+00
			-20.00		328.91E+00
			-19.50		329.72E+00
			-19.00		330.52E+00
			-18.50		331.27E+00
			-18.00		332.01E+00
			-17.50		332.73E+00
			-17.00		333.45E+00
			-16.50		334.12E+00
			-16.00		334.78E+00
			-15.50		335.37E+00
			-15.00		335.95E+00
			-14.50		336.49E+00
			-14.00		337.02E+00
			-13.50		337.52E+00
			-13.00		338.01E+00
			-12.50		338.44E+00
			-12.00		338.87E+00
			-11.50		339.26E+00
			-11.00		339.65E+00
			-10.50		340.03E+00
			-10.00		340.40E+00
			-9.50		340.71E+00
			-9.00		341.02E+00
			-8.50		341.27E+00
			-8.00		341.52E+00
			-7.50		341.78E+00
			-7.00		342.05E+00
			-6.50		342.32E+00
			-6.00		342.59E+00
			-5.50		342.80E+00
			-5.00		343.00E+00
			-4.50		343.13E+00
			-4.00		343.26E+00
			-3.50		343.35E+00
			-3.00		343.44E+00
			-2.50		343.48E+00
			-2.00		343.51E+00
			-1.50		343.47E+00
			-1.00		343.42E+00
			-0.50		343.33E+00
			0.00		343.24E+00
			0.50		343.12E+00
			1.00		343.00E+00
			1.50		342.84E+00
			2.00		342.68E+00
			2.50		342.48E+00
			3.00		342.29E+00
			3.50		342.10E+00
			4.00		341.92E+00
			4.50		341.79E+00
			5.00		341.66E+00
			5.50		341.53E+00
			6.00		341.39E+00
			6.50		341.22E+00
			7.00		341.05E+00
			7.50		340.85E+00
			8.00		340.64E+00
			8.50		340.37E+00
			9.00		340.08E+00
			9.50		339.73E+00
			10.00		339.38E+00
			10.50		339.07E+00
			11.00		338.76E+00
			11.50		338.50E+00
			12.00		338.23E+00
			12.50		337.91E+00
			13.00		337.59E+00
			13.50		337.20E+00
			14.00		336.80E+00
			14.50		336.36E+00
			15.00		335.90E+00
			15.50		335.36E+00
			16.00		334.81E+00
			16.50		334.18E+00
			17.00		333.55E+00
			17.50		332.92E+00
			18.00		332.29E+00
			18.50		331.66E+00
			19.00		331.02E+00
			19.50		330.30E+00
			20.00		329.57E+00
			20.50		328.77E+00
			21.00		327.96E+00
			21.50		327.14E+00
			22.00		326.30E+00
			22.50		325.37E+00
			23.00		324.42E+00
			23.50		323.28E+00
			24.00		322.11E+00
			24.50		320.72E+00
			25.00		319.30E+00
			25.50		317.70E+00
			26.00		316.02E+00
			26.50		313.71E+00
			27.00		311.25E+00
			27.50		307.69E+00
			28.00		303.90E+00
			28.50		298.44E+00
			29.00		292.61E+00
			29.50		284.01E+00
			30.00		275.01E+00
			30.50		263.06E+00
			31.00		250.84E+00
			31.50		236.72E+00
			32.00		222.42E+00
			32.50		206.59E+00
			33.00		190.71E+00
			33.50		174.55E+00
			34.00		158.52E+00
			34.50		143.21E+00
			35.00		128.16E+00
			35.50		114.74E+00
			36.00		101.67E+00
			36.50		90.761E+00
			37.00		80.189E+00
			37.50		71.675E+00
			38.00		63.369E+00
			38.50		56.589E+00
			39.00		50.061E+00
			39.50		45.077E+00
			40.00		40.233E+00
			40.50		36.420E+00
			41.00		32.788E+00
			41.50		30.271E+00
			42.00		27.844E+00
			42.50		25.975E+00
			43.00		24.153E+00
			43.50		22.670E+00
			44.00		21.277E+00
			44.50		20.438E+00
			45.00		19.599E+00
			45.50		18.760E+00
			46.00		17.950E+00
			46.50		17.321E+00
			47.00		16.721E+00
			47.50		16.301E+00
			48.00		15.882E+00
			48.50		15.462E+00
			49.00		15.044E+00
			49.50		14.628E+00
			50.00		14.212E+00
			50.50		13.788E+00
			51.00		13.366E+00
			51.50		12.950E+00
			52.00		12.559E+00
			52.50		12.347E+00
			53.00		12.136E+00
			53.50		11.929E+00
			54.00		11.695E+00
			54.50		11.271E+00
			55.00		10.877E+00
			55.50		10.668E+00
			56.00		10.458E+00
			56.50		10.248E+00
			57.00		10.038E+00
			57.50		9.8287E+00
			58.00		9.6190E+00
			58.50		9.4092E+00
			59.00		9.1995E+00
			59.50		8.9897E+00
		END_DATA
	END_SCAN  2
	BEGIN_SCAN  3
		TASK_NAME=tba PDD Profiles
		PROGRAM=WaterTankScans
		COMMENT=Gemelli
		MEAS_DATE=08-Feb-2021 09:38:10
		LINAC=MRIdian
		MODALITY=X
		ISOCENTER=900.00
		INPLANE_AXIS=Y
		CROSSPLANE_AXIS=X
		DEPTH_AXIS=Depth
		INPLANE_AXIS_DIR=TARGET_GUN
		CROSSPLANE_AXIS_DIR=LEFT_RIGHT
		DEPTH_AXIS_DIR=UP_DOWN
		ENERGY=6.00
		NOMINAL_DMAX=15.00
		SSD=850.00
		SCD=450.00
		WEDGE_ANGLE=0.00
		FIELD_INPLANE=66.40
		FIELD_CROSSPLANE=66.40
		FIELD_TYPE=RECTANGULAR
		GANTRY=0.00
		GANTRY_UPRIGHT_POSITION=0
		GANTRY_ROTATION=CW
		COLL_ANGLE=0.00
		COLL_OFFSET_INPLANE=0.00
		COLL_OFFSET_CROSSPLANE=0.00
		SCAN_DEVICE=BeamScan
		SCAN_DEVICE_SETUP=BARA_LEFT_RIGHT
		ELECTROMETER=BeamScan
		RANGE_FIELD=LOW
		RANGE_REFERENCE=MEDIUM
		DETECTOR=THIMBLE_CHAMBER
		DETECTOR_RADIUS=2.40
		DETECTOR_NAME=A28MR
		DETECTOR_SN=-
		DETECTOR_CALIBRATION=588000000.00
		DETECTOR_IS_CALIBRATED=0
		DETECTOR_REFERENCE=THIMBLE_CHAMBER
		DETECTOR_REFERENCE_RADIUS=2.75
		DETECTOR_REFERENCE_NAME=A28MR
		DETECTOR_REFERENCE_SN=Ã¢â‚¬â€
		DETECTOR_REFERENCE_IS_CALIBRATED=0
		DETECTOR_REFERENCE_CALIBRATION=303000000.00
		DETECTOR_HV=300.0
		DETECTOR_REFERENCE_HV=300.0
		DETECTOR_ORIENTATION=HORIZONTAL
		FILTER=FFF
		SCAN_SPEED_PROFILE=10.00
		SCAN_PROF_SPEED_DEP=DEPTH
		SCAN_SPEED_PDD=0.00
		SCAN_PDD_SPEED_DEP=ENERGY
		DETECTOR_TYPE=A28MR
		REF_FIELD_DEPTH=220.00
		REF_FIELD_DEFINED=ISOCENTER
		REF_FIELD_INPLANE=100.00
		REF_FIELD_CROSSPLANE=100.00
		REF_SCAN_POSITIONS=-85.00;-84.00;-83.00;-82.00;-81.00;-80.00;-79.00;-78.00;-77.00;-76.00;-75.00;-74.00;-73.00;-72.00;-71.00;-70.00;-69.00;-68.00;-67.00;-66.00;-65.00;-64.00;-63.00;-62.00;-61.00;-60.00;-59.00;-58.00;-57.00;-56.00;-55.00;-54.00;-53.00;-52.00;-51.00;-50.00;-49.00;-48.00;-47.00;-46.00;-45.00;-44.00;-43.00;-42.00;-41.00;-40.00;-39.00;-38.00;-37.00;-36.00;-35.00;-34.00;-33.00;-32.00;-31.00;-30.00;-29.00;-28.00;-27.00;-26.00;-25.00;-24.00;-23.00;-22.00;-21.00;-20.00;-19.00;-18.00;-17.00;-16.00;-15.00;-14.00;-13.00;-12.00;-11.00;-10.00;-9.00;-8.00;-7.00;-6.00;-5.00;-4.00;-3.00;-2.00;-1.00;0.00;1.00;2.00;3.00;4.00;5.00;6.00;7.00;8.00;9.00;10.00;11.00;12.00;13.00;14.00;15.00;16.00;17.00;18.00;19.00;20.00;21.00;22.00;23.00;24.00;25.00;26.00;27.00;28.00;29.00;30.00;31.00;32.00;33.00;34.00;35.00;36.00;37.00;38.00;39.00;40.00;41.00;42.00;43.00;44.00;45.00;46.00;47.00;48.00;49.00;50.00;51.00;52.00;53.00;54.00;55.00;56.00;57.00;58.00;59.00;60.00;61.00;62.00;63.00;64.00;65.00;66.00;67.00;68.00;69.00;70.00;71.00;72.00;73.00;74.00;75.00;76.00;77.00;78.00;79.00;80.00;81.00;82.00;83.00;84.00;85.00;
		REF_OVERSCAN_FACTOR=1.00
		SCAN_CURVETYPE=INPLANE_PROFILE
		SCAN_DEPTH=100.00
		SCAN_OFFAXIS_INPLANE=0.00
		SCAN_OFFAXIS_CROSSPLANE=0.00
		SCAN_ANGLE=0.00
		SCAN_DIAGONAL=NOT_DIAGONAL
		SCAN_DIRECTION=POSITIVE
		MEAS_MEDIUM=WATER
		MEAS_PRESET=MEAS_CONTINUOUS_REFERENCE_SCAN
		MEAS_TIME=0.100
		MEAS_UNIT=A.U.
		INCLINATION_ANGLE=0.00
		PRESSURE=1013.25
		TEMPERATURE=20.00
		NORM_TEMPERATURE=20.00
		CORRECTION_FACTOR=1.0000
		EXPECTED_MAX_DOSE_RATE=3.00
		EPOM_DEPTH_SHIFT=0.2
		EPOM_MODE=SHIFT_PROTOCOL
		CORRECTIONS=SMOOTHED_CORR;CAX_CORR;INTERPOLATED_CORR;
		BEGIN_DATA
			-59.50		10.481E+00
			-59.00		10.530E+00
			-58.50		10.651E+00
			-58.00		10.873E+00
			-57.50		11.103E+00
			-57.00		11.343E+00
			-56.50		11.577E+00
			-56.00		11.801E+00
