BEGIN_SCAN_DATA
	FORMAT=CC-Export V1.9                  
	FILE_CREATION_DATE=11-Mar-2022 17:53:21
	LAST_MODIFIED=11-Mar-2022 17:53:21
	BEGIN_SCAN  1
		TASK_NAME=tba PDD Profiles
		PROGRAM=WaterTankScans
		COMMENT=FBF_SanPietro
		MEAS_DATE=08-Feb-2021 09:38:10
		LINAC=MRIdian
		MODALITY=X
		ISOCENTER=900.00
		INPLANE_AXIS=Y
		CROSSPLANE_AXIS=X
		DEPTH_AXIS=Depth
		INPLANE_AXIS_DIR=TARGET_GUN
		CROSSPLANE_AXIS_DIR=LEFT_RIGHT
		DEPTH_AXIS_DIR=UP_DOWN
		ENERGY=6.00
		NOMINAL_DMAX=15.00
		SSD=850.00
		SCD=450.00
		WEDGE_ANGLE=0.00
		FIELD_INPLANE=41.50
		FIELD_CROSSPLANE=41.50
		FIELD_TYPE=RECTANGULAR
		GANTRY=0.00
		GANTRY_UPRIGHT_POSITION=0
		GANTRY_ROTATION=CW
		COLL_ANGLE=0.00
		COLL_OFFSET_INPLANE=0.00
		COLL_OFFSET_CROSSPLANE=0.00
		SCAN_DEVICE=BeamScan
		SCAN_DEVICE_SETUP=BARA_LEFT_RIGHT
		ELECTROMETER=BeamScan
		RANGE_FIELD=LOW
		RANGE_REFERENCE=MEDIUM
		DETECTOR=THIMBLE_CHAMBER
		DETECTOR_RADIUS=2.40
		DETECTOR_NAME=A28MR
		DETECTOR_SN=-
		DETECTOR_CALIBRATION=588000000.00
		DETECTOR_IS_CALIBRATED=0
		DETECTOR_REFERENCE=THIMBLE_CHAMBER
		DETECTOR_REFERENCE_RADIUS=2.75
		DETECTOR_REFERENCE_NAME=A28MR
		DETECTOR_REFERENCE_SN=—
		DETECTOR_REFERENCE_IS_CALIBRATED=0
		DETECTOR_REFERENCE_CALIBRATION=303000000.00
		DETECTOR_HV=300.0
		DETECTOR_REFERENCE_HV=300.0
		DETECTOR_ORIENTATION=HORIZONTAL
		FILTER=FFF
		SCAN_SPEED_PROFILE=10.00
		SCAN_PROF_SPEED_DEP=DEPTH
		SCAN_SPEED_PDD=0.00
		SCAN_PDD_SPEED_DEP=ENERGY
		DETECTOR_TYPE=A28MR
		REF_FIELD_DEPTH=220.00
		REF_FIELD_DEFINED=ISOCENTER
		REF_FIELD_INPLANE=100.00
		REF_FIELD_CROSSPLANE=100.00
		REF_SCAN_POSITIONS=-85.00;-84.00;-83.00;-82.00;-81.00;-80.00;-79.00;-78.00;-77.00;-76.00;-75.00;-74.00;-73.00;-72.00;-71.00;-70.00;-69.00;-68.00;-67.00;-66.00;-65.00;-64.00;-63.00;-62.00;-61.00;-60.00;-59.00;-58.00;-57.00;-56.00;-55.00;-54.00;-53.00;-52.00;-51.00;-50.00;-49.00;-48.00;-47.00;-46.00;-45.00;-44.00;-43.00;-42.00;-41.00;-40.00;-39.00;-38.00;-37.00;-36.00;-35.00;-34.00;-33.00;-32.00;-31.00;-30.00;-29.00;-28.00;-27.00;-26.00;-25.00;-24.00;-23.00;-22.00;-21.00;-20.00;-19.00;-18.00;-17.00;-16.00;-15.00;-14.00;-13.00;-12.00;-11.00;-10.00;-9.00;-8.00;-7.00;-6.00;-5.00;-4.00;-3.00;-2.00;-1.00;0.00;1.00;2.00;3.00;4.00;5.00;6.00;7.00;8.00;9.00;10.00;11.00;12.00;13.00;14.00;15.00;16.00;17.00;18.00;19.00;20.00;21.00;22.00;23.00;24.00;25.00;26.00;27.00;28.00;29.00;30.00;31.00;32.00;33.00;34.00;35.00;36.00;37.00;38.00;39.00;40.00;41.00;42.00;43.00;44.00;45.00;46.00;47.00;48.00;49.00;50.00;51.00;52.00;53.00;54.00;55.00;56.00;57.00;58.00;59.00;60.00;61.00;62.00;63.00;64.00;65.00;66.00;67.00;68.00;69.00;70.00;71.00;72.00;73.00;74.00;75.00;76.00;77.00;78.00;79.00;80.00;81.00;82.00;83.00;84.00;85.00;
		REF_OVERSCAN_FACTOR=1.00
		SCAN_CURVETYPE=CROSSPLANE_PROFILE
		SCAN_DEPTH=20.00
		SCAN_OFFAXIS_INPLANE=0.00
		SCAN_OFFAXIS_CROSSPLANE=0.00
		SCAN_ANGLE=0.00
		SCAN_DIAGONAL=NOT_DIAGONAL
		SCAN_DIRECTION=POSITIVE
		MEAS_MEDIUM=WATER
		MEAS_PRESET=MEAS_CONTINUOUS_REFERENCE_SCAN
		MEAS_TIME=0.100
		MEAS_UNIT=A.U.
		INCLINATION_ANGLE=0.00
		PRESSURE=1013.25
		TEMPERATURE=20.00
		NORM_TEMPERATURE=20.00
		CORRECTION_FACTOR=1.0000
		EXPECTED_MAX_DOSE_RATE=3.00
		EPOM_DEPTH_SHIFT=0.2
		EPOM_MODE=SHIFT_PROTOCOL
		CORRECTIONS=CAX_CORR;INTERPOLATED_CORR;SYMMETRY_CORR;
		BEGIN_DATA
			-50.00		3.1196E+00
			-49.50		3.1748E+00
			-49.00		3.2422E+00
			-48.50		3.2972E+00
			-48.00		3.3591E+00
			-47.50		3.4281E+00
			-47.00		3.4971E+00
			-46.50		3.5806E+00
			-46.00		3.6657E+00
			-45.50		3.7366E+00
			-45.00		3.8078E+00
			-44.50		3.9024E+00
			-44.00		4.0012E+00
			-43.50		4.0945E+00
			-43.00		4.1877E+00
			-42.50		4.2810E+00
			-42.00		4.3805E+00
			-41.50		4.5129E+00
			-41.00		4.6433E+00
			-40.50		4.7571E+00
			-40.00		4.8728E+00
			-39.50		5.0141E+00
			-39.00		5.1726E+00
			-38.50		5.3464E+00
			-38.00		5.5176E+00
			-37.50		5.6915E+00
			-37.00		5.8661E+00
			-36.50		6.0580E+00
			-36.00		6.2675E+00
			-35.50		6.5311E+00
			-35.00		6.8055E+00
			-34.50		7.0982E+00
			-34.00		7.4071E+00
			-33.50		7.7607E+00
			-33.00		8.1314E+00
			-32.50		8.5728E+00
			-32.00		9.0335E+00
			-31.50		9.5320E+00
			-31.00		10.066E+00
			-30.50		10.744E+00
			-30.00		11.458E+00
			-29.50		12.243E+00
			-29.00		13.215E+00
			-28.50		14.320E+00
			-28.00		15.604E+00
			-27.50		17.213E+00
			-27.00		19.110E+00
			-26.50		21.529E+00
			-26.00		24.690E+00
			-25.50		28.972E+00
			-25.00		34.549E+00
			-24.50		42.216E+00
			-24.00		52.310E+00
			-23.50		65.217E+00
			-23.00		81.607E+00
			-22.50		101.10E+00
			-22.00		122.81E+00
			-21.50		146.87E+00
			-21.00		172.87E+00
			-20.50		199.93E+00
			-20.00		227.36E+00
			-19.50		255.24E+00
			-19.00		281.88E+00
			-18.50		306.79E+00
			-18.00		330.18E+00
			-17.50		351.41E+00
			-17.00		370.13E+00
			-16.50		384.77E+00
			-16.00		397.33E+00
			-15.50		407.01E+00
			-15.00		414.75E+00
			-14.50		421.25E+00
			-14.00		426.33E+00
			-13.50		430.22E+00
			-13.00		433.00E+00
			-12.50		435.55E+00
			-12.00		437.95E+00
			-11.50		439.76E+00
			-11.00		440.65E+00
			-10.50		441.80E+00
			-10.00		443.40E+00
			-9.50		444.38E+00
			-9.00		445.11E+00
			-8.50		445.60E+00
			-8.00		446.14E+00
			-7.50		446.85E+00
			-7.00		447.43E+00
			-6.50		447.99E+00
			-6.00		448.62E+00
			-5.50		449.05E+00
			-5.00		449.42E+00
			-4.50		449.83E+00
			-4.00		450.35E+00
			-3.50		450.89E+00
			-3.00		451.24E+00
			-2.50		450.99E+00
			-2.00		450.77E+00
			-1.50		451.14E+00
			-1.00		451.65E+00
			-0.50		452.10E+00
			0.00		452.38E+00
			0.50		452.10E+00
			1.00		451.65E+00
			1.50		451.14E+00
			2.00		450.77E+00
			2.50		450.99E+00
			3.00		451.24E+00
			3.50		450.89E+00
			4.00		450.35E+00
			4.50		449.83E+00
			5.00		449.42E+00
			5.50		449.05E+00
			6.00		448.62E+00
			6.50		447.99E+00
			7.00		447.43E+00
			7.50		446.85E+00
			8.00		446.14E+00
			8.50		445.60E+00
			9.00		445.11E+00
			9.50		444.38E+00
			10.00		443.40E+00
			10.50		441.80E+00
			11.00		440.65E+00
			11.50		439.76E+00
			12.00		437.95E+00
			12.50		435.55E+00
			13.00		433.00E+00
			13.50		430.22E+00
			14.00		426.33E+00
			14.50		421.25E+00
			15.00		414.75E+00
			15.50		407.01E+00
			16.00		397.33E+00
			16.50		384.77E+00
			17.00		370.13E+00
			17.50		351.41E+00
			18.00		330.18E+00
			18.50		306.79E+00
			19.00		281.88E+00
			19.50		255.24E+00
			20.00		227.36E+00
			20.50		199.93E+00
			21.00		172.87E+00
			21.50		146.87E+00
			22.00		122.81E+00
			22.50		101.10E+00
			23.00		81.607E+00
			23.50		65.217E+00
			24.00		52.310E+00
			24.50		42.216E+00
			25.00		34.549E+00
			25.50		28.972E+00
			26.00		24.690E+00
			26.50		21.529E+00
			27.00		19.110E+00
			27.50		17.213E+00
			28.00		15.604E+00
			28.50		14.320E+00
			29.00		13.215E+00
			29.50		12.243E+00
			30.00		11.458E+00
			30.50		10.744E+00
			31.00		10.066E+00
			31.50		9.5320E+00
			32.00		9.0335E+00
			32.50		8.5728E+00
			33.00		8.1314E+00
			33.50		7.7607E+00
			34.00		7.4071E+00
			34.50		7.0982E+00
			35.00		6.8055E+00
			35.50		6.5311E+00
			36.00		6.2675E+00
			36.50		6.0580E+00
			37.00		5.8661E+00
			37.50		5.6915E+00
			38.00		5.5176E+00
			38.50		5.3464E+00
			39.00		5.1726E+00
			39.50		5.0141E+00
			40.00		4.8728E+00
			40.50		4.7571E+00
			41.00		4.6433E+00
			41.50		4.5129E+00
			42.00		4.3805E+00
			42.50		4.2810E+00
			43.00		4.1877E+00
			43.50		4.0945E+00
			44.00		4.0012E+00
			44.50		3.9024E+00
			45.00		3.8078E+00
			45.50		3.7366E+00
			46.00		3.6657E+00
			46.50		3.5806E+00
			47.00		3.4971E+00
			47.50		3.4281E+00
			48.00		3.3591E+00
			48.50		3.2972E+00
			49.00		3.2422E+00
			49.50		3.1748E+00
			50.00		3.1196E+00
		END_DATA
	END_SCAN  1
	BEGIN_SCAN  2
		TASK_NAME=tba PDD Profiles
		PROGRAM=WaterTankScans
		COMMENT=FBF_SanPietro
		MEAS_DATE=08-Feb-2021 09:38:10
		LINAC=MRIdian
		MODALITY=X
		ISOCENTER=900.00
		INPLANE_AXIS=Y
		CROSSPLANE_AXIS=X
		DEPTH_AXIS=Depth
		INPLANE_AXIS_DIR=TARGET_GUN
		CROSSPLANE_AXIS_DIR=LEFT_RIGHT
		DEPTH_AXIS_DIR=UP_DOWN
		ENERGY=6.00
		NOMINAL_DMAX=15.00
		SSD=850.00
		SCD=450.00
		WEDGE_ANGLE=0.00
		FIELD_INPLANE=41.50
		FIELD_CROSSPLANE=41.50
		FIELD_TYPE=RECTANGULAR
		GANTRY=0.00
		GANTRY_UPRIGHT_POSITION=0
		GANTRY_ROTATION=CW
		COLL_ANGLE=0.00
		COLL_OFFSET_INPLANE=0.00
		COLL_OFFSET_CROSSPLANE=0.00
		SCAN_DEVICE=BeamScan
		SCAN_DEVICE_SETUP=BARA_LEFT_RIGHT
		ELECTROMETER=BeamScan
		RANGE_FIELD=LOW
		RANGE_REFERENCE=MEDIUM
		DETECTOR=THIMBLE_CHAMBER
		DETECTOR_RADIUS=2.40
		DETECTOR_NAME=A28MR
		DETECTOR_SN=-
		DETECTOR_CALIBRATION=588000000.00
		DETECTOR_IS_CALIBRATED=0
		DETECTOR_REFERENCE=THIMBLE_CHAMBER
		DETECTOR_REFERENCE_RADIUS=2.75
		DETECTOR_REFERENCE_NAME=A28MR
		DETECTOR_REFERENCE_SN=—
		DETECTOR_REFERENCE_IS_CALIBRATED=0
		DETECTOR_REFERENCE_CALIBRATION=303000000.00
		DETECTOR_HV=300.0
		DETECTOR_REFERENCE_HV=300.0
		DETECTOR_ORIENTATION=HORIZONTAL
		FILTER=FFF
		SCAN_SPEED_PROFILE=10.00
		SCAN_PROF_SPEED_DEP=DEPTH
		SCAN_SPEED_PDD=0.00
		SCAN_PDD_SPEED_DEP=ENERGY
		DETECTOR_TYPE=A28MR
		REF_FIELD_DEPTH=220.00
		REF_FIELD_DEFINED=ISOCENTER
		REF_FIELD_INPLANE=100.00
		REF_FIELD_CROSSPLANE=100.00
		REF_SCAN_POSITIONS=-85.00;-84.00;-83.00;-82.00;-81.00;-80.00;-79.00;-78.00;-77.00;-76.00;-75.00;-74.00;-73.00;-72.00;-71.00;-70.00;-69.00;-68.00;-67.00;-66.00;-65.00;-64.00;-63.00;-62.00;-61.00;-60.00;-59.00;-58.00;-57.00;-56.00;-55.00;-54.00;-53.00;-52.00;-51.00;-50.00;-49.00;-48.00;-47.00;-46.00;-45.00;-44.00;-43.00;-42.00;-41.00;-40.00;-39.00;-38.00;-37.00;-36.00;-35.00;-34.00;-33.00;-32.00;-31.00;-30.00;-29.00;-28.00;-27.00;-26.00;-25.00;-24.00;-23.00;-22.00;-21.00;-20.00;-19.00;-18.00;-17.00;-16.00;-15.00;-14.00;-13.00;-12.00;-11.00;-10.00;-9.00;-8.00;-7.00;-6.00;-5.00;-4.00;-3.00;-2.00;-1.00;0.00;1.00;2.00;3.00;4.00;5.00;6.00;7.00;8.00;9.00;10.00;11.00;12.00;13.00;14.00;15.00;16.00;17.00;18.00;19.00;20.00;21.00;22.00;23.00;24.00;25.00;26.00;27.00;28.00;29.00;30.00;31.00;32.00;33.00;34.00;35.00;36.00;37.00;38.00;39.00;40.00;41.00;42.00;43.00;44.00;45.00;46.00;47.00;48.00;49.00;50.00;51.00;52.00;53.00;54.00;55.00;56.00;57.00;58.00;59.00;60.00;61.00;62.00;63.00;64.00;65.00;66.00;67.00;68.00;69.00;70.00;71.00;72.00;73.00;74.00;75.00;76.00;77.00;78.00;79.00;80.00;81.00;82.00;83.00;84.00;85.00;
		REF_OVERSCAN_FACTOR=1.00
		SCAN_CURVETYPE=CROSSPLANE_PROFILE
		SCAN_DEPTH=55.00
		SCAN_OFFAXIS_INPLANE=0.00
		SCAN_OFFAXIS_CROSSPLANE=0.00
		SCAN_ANGLE=0.00
		SCAN_DIAGONAL=NOT_DIAGONAL
		SCAN_DIRECTION=POSITIVE
		MEAS_MEDIUM=WATER
		MEAS_PRESET=MEAS_CONTINUOUS_REFERENCE_SCAN
		MEAS_TIME=0.100
		MEAS_UNIT=A.U.
		INCLINATION_ANGLE=0.00
		PRESSURE=1013.25
		TEMPERATURE=20.00
		NORM_TEMPERATURE=20.00
		CORRECTION_FACTOR=1.0000
		EXPECTED_MAX_DOSE_RATE=3.00
		EPOM_DEPTH_SHIFT=0.2
		EPOM_MODE=SHIFT_PROTOCOL
		CORRECTIONS=MODIFIED_CORR;CAX_CORR;INTERPOLATED_CORR;SYMMETRY_CORR;
		BEGIN_DATA
			-53.00		4.5150E+00
			-52.50		4.7170E+00
			-52.00		4.7600E+00
			-51.50		4.7600E+00
			-51.00		4.8830E+00
			-50.50		5.0870E+00
			-50.00		5.1928E+00
			-49.50		5.1928E+00
			-49.00		5.2607E+00
			-48.50		5.4607E+00
			-48.00		5.6618E+00
			-47.50		5.8680E+00
			-47.00		6.0582E+00
			-46.50		6.0582E+00
			-46.00		6.0582E+00
			-45.50		6.2396E+00
			-45.00		6.4479E+00
			-44.50		6.6465E+00
			-44.00		6.8426E+00
			-43.50		7.0447E+00
			-43.00		7.2508E+00
			-42.50		7.4559E+00
			-42.00		7.6600E+00
			-41.50		7.8618E+00
			-41.00		8.0599E+00
			-40.50		8.2594E+00
			-40.00		8.4656E+00
			-39.50		8.6711E+00
			-39.00		8.8691E+00
			-38.50		9.0672E+00
			-38.00		9.4577E+00
			-37.50		9.8699E+00
			-37.00		10.114E+00
			-36.50		10.316E+00
			-36.00		10.646E+00
			-35.50		11.042E+00
			-35.00		11.446E+00
			-34.50		11.858E+00
			-34.00		12.266E+00
			-33.50		12.666E+00
			-33.00		13.222E+00
			-32.50		13.832E+00
			-32.00		14.483E+00
			-31.50		15.188E+00
			-31.00		15.926E+00
			-30.50		16.828E+00
			-30.00		17.750E+00
			-29.50		18.840E+00
			-29.00		19.964E+00
			-28.50		21.500E+00
			-28.00		23.107E+00
			-27.50		25.402E+00
			-27.00		28.139E+00
			-26.50		32.137E+00
			-26.00		37.300E+00
			-25.50		43.975E+00
			-25.00		53.055E+00
			-24.50		63.678E+00
			-24.00		78.436E+00
			-23.50		94.109E+00
			-23.00		113.62E+00
			-22.50		133.43E+00
			-22.00		155.66E+00
			-21.50		178.18E+00
			-21.00		202.12E+00
			-20.50		226.46E+00
			-20.00		250.51E+00
			-19.50		274.27E+00
			-19.00		296.51E+00
			-18.50		317.41E+00
			-18.00		336.42E+00
			-17.50		352.82E+00
			-17.00		367.76E+00
			-16.50		378.59E+00
			-16.00		388.72E+00
			-15.50		395.80E+00
			-15.00		402.39E+00
			-14.50		406.66E+00
			-14.00		410.76E+00
			-13.50		413.64E+00
			-13.00		416.18E+00
			-12.50		418.20E+00
			-12.00		420.02E+00
			-11.50		421.55E+00
			-11.00		422.87E+00
			-10.50		424.02E+00
			-10.00		424.82E+00
			-9.50		425.56E+00
			-9.00		426.47E+00
			-8.50		427.35E+00
			-8.00		427.97E+00
			-7.50		428.57E+00
			-7.00		428.82E+00
			-6.50		429.02E+00
			-6.00		429.66E+00
			-5.50		430.37E+00
			-5.00		430.82E+00
			-4.50		431.22E+00
			-4.00		431.51E+00
			-3.50		431.61E+00
			-3.00		431.91E+00
			-2.50		432.51E+00
			-2.00		432.96E+00
			-1.50		433.17E+00
			-1.00		433.31E+00
			-0.50		433.02E+00
			0.00		432.77E+00
			0.50		433.02E+00
			1.00		433.31E+00
			1.50		433.17E+00
			2.00		432.96E+00
			2.50		432.51E+00
			3.00		431.91E+00
			3.50		431.61E+00
			4.00		431.51E+00
			4.50		431.22E+00
			5.00		430.82E+00
			5.50		430.37E+00
			6.00		429.66E+00
			6.50		429.02E+00
			7.00		428.82E+00
			7.50		428.57E+00
			8.00		427.97E+00
			8.50		427.35E+00
			9.00		426.47E+00
			9.50		425.56E+00
			10.00		424.82E+00
			10.50		424.02E+00
			11.00		422.87E+00
			11.50		421.55E+00
			12.00		420.02E+00
			12.50		418.20E+00
			13.00		416.18E+00
			13.50		413.64E+00
			14.00		410.76E+00
			14.50		406.66E+00
			15.00		402.39E+00
			15.50		395.80E+00
			16.00		388.72E+00
			16.50		378.59E+00
			17.00		367.76E+00
			17.50		352.82E+00
			18.00		336.42E+00
			18.50		317.41E+00
			19.00		296.51E+00
			19.50		274.27E+00
			20.00		250.51E+00
			20.50		226.46E+00
			21.00		202.12E+00
			21.50		178.18E+00
			22.00		155.66E+00
			22.50		133.43E+00
			23.00		113.62E+00
			23.50		94.109E+00
			24.00		78.436E+00
			24.50		63.678E+00
			25.00		53.055E+00
			25.50		43.975E+00
			26.00		37.300E+00
			26.50		32.137E+00
			27.00		28.139E+00
			27.50		25.402E+00
			28.00		23.107E+00
			28.50		21.500E+00
			29.00		19.964E+00
			29.50		18.840E+00
			30.00		17.750E+00
			30.50		16.828E+00
			31.00		15.926E+00
			31.50		15.188E+00
			32.00		14.483E+00
			32.50		13.832E+00
			33.00		13.222E+00
			33.50		12.666E+00
			34.00		12.266E+00
			34.50		11.858E+00
			35.00		11.446E+00
			35.50		11.042E+00
			36.00		10.646E+00
			36.50		10.316E+00
			37.00		10.114E+00
			37.50		9.8699E+00
			38.00		9.4577E+00
			38.50		9.0672E+00
			39.00		8.8691E+00
			39.50		8.6711E+00
			40.00		8.4656E+00
			40.50		8.2594E+00
			41.00		8.0599E+00
			41.50		7.8618E+00
			42.00		7.6600E+00
			42.50		7.4559E+00
			43.00		7.2508E+00
			43.50		7.0447E+00
			44.00		6.8426E+00
			44.50		6.6465E+00
			45.00		6.4479E+00
			45.50		6.2396E+00
			46.00		6.0582E+00
			46.50		6.0582E+00
			47.00		6.0582E+00
			47.50		5.8680E+00
			48.00		5.6618E+00
			48.50		5.4607E+00
			49.00		5.2607E+00
			49.50		5.1928E+00
			50.00		5.1928E+00
			50.50		5.0870E+00
			51.00		4.8830E+00
			51.50		4.7600E+00
			52.00		4.7600E+00
			52.50		4.7170E+00
			53.00		4.5150E+00
		END_DATA
	END_SCAN  2
	BEGIN_SCAN  3
		TASK_NAME=tba PDD Profiles
		PROGRAM=WaterTankScans
		COMMENT=FBF_SanPietro
		MEAS_DATE=08-Feb-2021 09:38:10
		LINAC=MRIdian
		MODALITY=X
		ISOCENTER=900.00
		INPLANE_AXIS=Y
		CROSSPLANE_AXIS=X
		DEPTH_AXIS=Depth
		INPLANE_AXIS_DIR=TARGET_GUN
		CROSSPLANE_AXIS_DIR=LEFT_RIGHT
		DEPTH_AXIS_DIR=UP_DOWN
		ENERGY=6.00
		NOMINAL_DMAX=15.00
		SSD=850.00
		SCD=450.00
		WEDGE_ANGLE=0.00
		FIELD_INPLANE=41.50
		FIELD_CROSSPLANE=41.50
		FIELD_TYPE=RECTANGULAR
		GANTRY=0.00
		GANTRY_UPRIGHT_POSITION=0
		GANTRY_ROTATION=CW
		COLL_ANGLE=0.00
		COLL_OFFSET_INPLANE=0.00
		COLL_OFFSET_CROSSPLANE=0.00
		SCAN_DEVICE=BeamScan
		SCAN_DEVICE_SETUP=BARA_LEFT_RIGHT
		ELECTROMETER=BeamScan
		RANGE_FIELD=LOW
		RANGE_REFERENCE=MEDIUM
		DETECTOR=THIMBLE_CHAMBER
		DETECTOR_RADIUS=2.40
		DETECTOR_NAME=A28MR
		DETECTOR_SN=-
		DETECTOR_CALIBRATION=588000000.00
		DETECTOR_IS_CALIBRATED=0
		DETECTOR_REFERENCE=THIMBLE_CHAMBER
		DETECTOR_REFERENCE_RADIUS=2.75
		DETECTOR_REFERENCE_NAME=A28MR
		DETECTOR_REFERENCE_SN=—
		DETECTOR_REFERENCE_IS_CALIBRATED=0
		DETECTOR_REFERENCE_CALIBRATION=303000000.00
		DETECTOR_HV=300.0
		DETECTOR_REFERENCE_HV=300.0
		DETECTOR_ORIENTATION=HORIZONTAL
		FILTER=FFF
		SCAN_SPEED_PROFILE=10.00
		SCAN_PROF_SPEED_DEP=DEPTH
		SCAN_SPEED_PDD=0.00
		SCAN_PDD_SPEED_DEP=ENERGY
		DETECTOR_TYPE=A28MR
		REF_FIELD_DEPTH=220.00
		REF_FIELD_DEFINED=ISOCENTER
		REF_FIELD_INPLANE=100.00
		REF_FIELD_CROSSPLANE=100.00
		REF_SCAN_POSITIONS=-85.00;-84.00;-83.00;-82.00;-81.00;-80.00;-79.00;-78.00;-77.00;-76.00;-75.00;-74.00;-73.00;-72.00;-71.00;-70.00;-69.00;-68.00;-67.00;-66.00;-65.00;-64.00;-63.00;-62.00;-61.00;-60.00;-59.00;-58.00;-57.00;-56.00;-55.00;-54.00;-53.00;-52.00;-51.00;-50.00;-49.00;-48.00;-47.00;-46.00;-45.00;-44.00;-43.00;-42.00;-41.00;-40.00;-39.00;-38.00;-37.00;-36.00;-35.00;-34.00;-33.00;-32.00;-31.00;-30.00;-29.00;-28.00;-27.00;-26.00;-25.00;-24.00;-23.00;-22.00;-21.00;-20.00;-19.00;-18.00;-17.00;-16.00;-15.00;-14.00;-13.00;-12.00;-11.00;-10.00;-9.00;-8.00;-7.00;-6.00;-5.00;-4.00;-3.00;-2.00;-1.00;0.00;1.00;2.00;3.00;4.00;5.00;6.00;7.00;8.00;9.00;10.00;11.00;12.00;13.00;14.00;15.00;16.00;17.00;18.00;19.00;20.00;21.00;22.00;23.00;24.00;25.00;26.00;27.00;28.00;29.00;30.00;31.00;32.00;33.00;34.00;35.00;36.00;37.00;38.00;39.00;40.00;41.00;42.00;43.00;44.00;45.00;46.00;47.00;48.00;49.00;50.00;51.00;52.00;53.00;54.00;55.00;56.00;57.00;58.00;59.00;60.00;61.00;62.00;63.00;64.00;65.00;66.00;67.00;68.00;69.00;70.00;71.00;72.00;73.00;74.00;75.00;76.00;77.00;78.00;79.00;80.00;81.00;82.00;83.00;84.00;85.00;
		REF_OVERSCAN_FACTOR=1.00
		SCAN_CURVETYPE=CROSSPLANE_PROFILE
		SCAN_DEPTH=100.00
		SCAN_OFFAXIS_INPLANE=0.00
		SCAN_OFFAXIS_CROSSPLANE=0.00
		SCAN_ANGLE=0.00
		SCAN_DIAGONAL=NOT_DIAGONAL
		SCAN_DIRECTION=POSITIVE
		MEAS_MEDIUM=WATER
		MEAS_PRESET=MEAS_CONTINUOUS_REFERENCE_SCAN
		MEAS_TIME=0.100
		MEAS_UNIT=A.U.
		INCLINATION_ANGLE=0.00
		PRESSURE=1013.25
		TEMPERATURE=20.00
		NORM_TEMPERATURE=20.00
		CORRECTION_FACTOR=1.0000
		EXPECTED_MAX_DOSE_RATE=3.00
		EPOM_DEPTH_SHIFT=0.2
		EPOM_MODE=SHIFT_PROTOCOL
		CORRECTIONS=MODIFIED_CORR;CAX_CORR;INTERPOLATED_CORR;SYMMETRY_CORR;
		BEGIN_DATA
			-53.50		5.6255E+00
			-53.00		5.6718E+00
			-52.50		5.7762E+00
			-52.00		5.9327E+00
			-51.50		6.0331E+00
			-51.00		6.1493E+00
			-50.50		6.3541E+00
			-50.00		6.4991E+00
			-49.50		6.5995E+00
			-49.00		6.7500E+00
			-48.50		6.8580E+00
			-48.00		6.9583E+00
			-47.50		7.1381E+00
			-47.00		7.3230E+00
			-46.50		7.4243E+00
			-46.00		7.5322E+00
			-45.50		7.7339E+00
			-45.00		7.9367E+00
			-44.50		8.1382E+00
			-44.00		8.3379E+00
			-43.50		8.5408E+00
			-43.00		8.7477E+00
			-42.50		8.9522E+00
			-42.00		9.1538E+00
			-41.50		9.3561E+00
			-41.00		9.5568E+00
			-40.50		9.7575E+00
			-40.00		9.9613E+00
			-39.50		10.191E+00
			-39.00		10.495E+00
			-38.50		10.787E+00
			-38.00		11.049E+00
			-37.50		11.354E+00
			-37.00		11.758E+00
			-36.50		12.163E+00
			-36.00		12.538E+00
			-35.50		12.843E+00
			-35.00		13.165E+00
			-34.50		13.572E+00
			-34.00		14.042E+00
			-33.50		14.641E+00
			-33.00		15.246E+00
			-32.50		15.771E+00
			-32.00		16.316E+00
			-31.50		16.992E+00
			-31.00		17.710E+00
			-30.50		18.653E+00
			-30.00		19.668E+00
			-29.50		20.933E+00
			-29.00		22.263E+00
			-28.50		24.085E+00
			-28.00		26.291E+00
			-27.50		29.286E+00
			-27.00		33.357E+00
			-26.50		38.295E+00
			-26.00		45.031E+00
			-25.50		52.754E+00
			-25.00		63.197E+00
			-24.50		74.424E+00
			-24.00		87.975E+00
			-23.50		102.05E+00
			-23.00		117.76E+00
			-22.50		133.82E+00
			-22.00		150.46E+00
			-21.50		167.15E+00
			-21.00		183.45E+00
			-20.50		199.63E+00
			-20.00		215.04E+00
			-19.50		229.71E+00
			-19.00		243.13E+00
			-18.50		254.54E+00
			-18.00		264.87E+00
