BEGIN_SCAN_DATA
	FORMAT=CC-Export V1.9                  
	FILE_CREATION_DATE=10-Mar-2022 18:49:29
	LAST_MODIFIED=10-Mar-2022 18:49:29
	BEGIN_SCAN  1
		TASK_NAME=tba PDD Profiles
		PROGRAM=WaterTankScans
		COMMENT=Mater Olbia-corrected for Ref
		MEAS_DATE=08-Feb-2021 09:38:10
		LINAC=MRIdian
		MODALITY=X
		ISOCENTER=900.00
		INPLANE_AXIS=Y
		CROSSPLANE_AXIS=X
		DEPTH_AXIS=Depth
		INPLANE_AXIS_DIR=TARGET_GUN
		CROSSPLANE_AXIS_DIR=LEFT_RIGHT
		DEPTH_AXIS_DIR=UP_DOWN
		ENERGY=6.00
		NOMINAL_DMAX=15.00
		SSD=850.00
		SCD=450.00
		WEDGE_ANGLE=0.00
		FIELD_INPLANE=66.40
		FIELD_CROSSPLANE=66.40
		FIELD_TYPE=RECTANGULAR
		GANTRY=0.00
		GANTRY_UPRIGHT_POSITION=0
		GANTRY_ROTATION=CW
		COLL_ANGLE=0.00
		COLL_OFFSET_INPLANE=0.00
		COLL_OFFSET_CROSSPLANE=0.00
		SCAN_DEVICE=BeamScan
		SCAN_DEVICE_SETUP=BARA_LEFT_RIGHT
		ELECTROMETER=BeamScan
		RANGE_FIELD=LOW
		RANGE_REFERENCE=MEDIUM
		DETECTOR=THIMBLE_CHAMBER
		DETECTOR_RADIUS=2.40
		DETECTOR_NAME=A28MR
		DETECTOR_SN=-
		DETECTOR_CALIBRATION=588000000.00
		DETECTOR_IS_CALIBRATED=0
		DETECTOR_REFERENCE=THIMBLE_CHAMBER
		DETECTOR_REFERENCE_RADIUS=2.75
		DETECTOR_REFERENCE_NAME=A28MR
		DETECTOR_REFERENCE_SN=â€”
		DETECTOR_REFERENCE_IS_CALIBRATED=0
		DETECTOR_REFERENCE_CALIBRATION=303000000.00
		DETECTOR_HV=300.0
		DETECTOR_REFERENCE_HV=300.0
		DETECTOR_ORIENTATION=HORIZONTAL
		FILTER=FFF
		SCAN_SPEED_PROFILE=10.00
		SCAN_PROF_SPEED_DEP=DEPTH
		SCAN_SPEED_PDD=0.00
		SCAN_PDD_SPEED_DEP=ENERGY
		DETECTOR_TYPE=A28MR
		REF_FIELD_DEPTH=220.00
		REF_FIELD_DEFINED=ISOCENTER
		REF_FIELD_INPLANE=100.00
		REF_FIELD_CROSSPLANE=100.00
		REF_SCAN_POSITIONS=-85.00;-84.00;-83.00;-82.00;-81.00;-80.00;-79.00;-78.00;-77.00;-76.00;-75.00;-74.00;-73.00;-72.00;-71.00;-70.00;-69.00;-68.00;-67.00;-66.00;-65.00;-64.00;-63.00;-62.00;-61.00;-60.00;-59.00;-58.00;-57.00;-56.00;-55.00;-54.00;-53.00;-52.00;-51.00;-50.00;-49.00;-48.00;-47.00;-46.00;-45.00;-44.00;-43.00;-42.00;-41.00;-40.00;-39.00;-38.00;-37.00;-36.00;-35.00;-34.00;-33.00;-32.00;-31.00;-30.00;-29.00;-28.00;-27.00;-26.00;-25.00;-24.00;-23.00;-22.00;-21.00;-20.00;-19.00;-18.00;-17.00;-16.00;-15.00;-14.00;-13.00;-12.00;-11.00;-10.00;-9.00;-8.00;-7.00;-6.00;-5.00;-4.00;-3.00;-2.00;-1.00;0.00;1.00;2.00;3.00;4.00;5.00;6.00;7.00;8.00;9.00;10.00;11.00;12.00;13.00;14.00;15.00;16.00;17.00;18.00;19.00;20.00;21.00;22.00;23.00;24.00;25.00;26.00;27.00;28.00;29.00;30.00;31.00;32.00;33.00;34.00;35.00;36.00;37.00;38.00;39.00;40.00;41.00;42.00;43.00;44.00;45.00;46.00;47.00;48.00;49.00;50.00;51.00;52.00;53.00;54.00;55.00;56.00;57.00;58.00;59.00;60.00;61.00;62.00;63.00;64.00;65.00;66.00;67.00;68.00;69.00;70.00;71.00;72.00;73.00;74.00;75.00;76.00;77.00;78.00;79.00;80.00;81.00;82.00;83.00;84.00;85.00;
		REF_OVERSCAN_FACTOR=1.00
		SCAN_CURVETYPE=CROSSPLANE_PROFILE
		SCAN_DEPTH=20.00
		SCAN_OFFAXIS_INPLANE=0.00
		SCAN_OFFAXIS_CROSSPLANE=0.00
		SCAN_ANGLE=0.00
		SCAN_DIAGONAL=NOT_DIAGONAL
		SCAN_DIRECTION=POSITIVE
		MEAS_MEDIUM=WATER
		MEAS_PRESET=MEAS_CONTINUOUS_REFERENCE_SCAN
		MEAS_TIME=0.100
		MEAS_UNIT=A.U.
		INCLINATION_ANGLE=0.00
		PRESSURE=1013.25
		TEMPERATURE=20.00
		NORM_TEMPERATURE=20.00
		CORRECTION_FACTOR=1.0000
		EXPECTED_MAX_DOSE_RATE=3.00
		EPOM_DEPTH_SHIFT=0.2
		EPOM_MODE=SHIFT_PROTOCOL
		CORRECTIONS=CAX_CORR;SYMMETRY_CORR;INTERPOLATED_CORR;
		BEGIN_DATA
			-60.00		5.5327E+00
			-59.50		5.6604E+00
			-59.00		5.7408E+00
			-58.50		5.8619E+00
			-58.00		5.9928E+00
			-57.50		6.0910E+00
			-57.00		6.1903E+00
			-56.50		6.3148E+00
			-56.00		6.4233E+00
			-55.50		6.5427E+00
			-55.00		6.6961E+00
			-54.50		6.8514E+00
			-54.00		6.9867E+00
			-53.50		7.1321E+00
			-53.00		7.2954E+00
			-52.50		7.4508E+00
			-52.00		7.6026E+00
			-51.50		7.7958E+00
			-51.00		7.9971E+00
			-50.50		8.1679E+00
			-50.00		8.3440E+00
			-49.50		8.5877E+00
			-49.00		8.8512E+00
			-48.50		9.0975E+00
			-48.00		9.3358E+00
			-47.50		9.6218E+00
			-47.00		9.9448E+00
			-46.50		10.322E+00
			-46.00		10.693E+00
			-45.50		11.047E+00
			-45.00		11.437E+00
			-44.50		11.894E+00
			-44.00		12.356E+00
			-43.50		12.913E+00
			-43.00		13.537E+00
			-42.50		14.214E+00
			-42.00		14.917E+00
			-41.50		15.776E+00
			-41.00		16.707E+00
			-40.50		17.802E+00
			-40.00		19.030E+00
			-39.50		20.673E+00
			-39.00		22.496E+00
			-38.50		25.004E+00
			-38.00		27.978E+00
			-37.50		32.369E+00
			-37.00		37.523E+00
			-36.50		45.154E+00
			-36.00		54.163E+00
			-35.50		66.648E+00
			-35.00		80.813E+00
			-34.50		98.223E+00
			-34.00		117.03E+00
			-33.50		138.65E+00
			-33.00		161.27E+00
			-32.50		185.41E+00
			-32.00		209.74E+00
			-31.50		233.89E+00
			-31.00		257.84E+00
			-30.50		280.54E+00
			-30.00		302.26E+00
			-29.50		320.94E+00
			-29.00		338.19E+00
			-28.50		351.61E+00
			-28.00		363.29E+00
			-27.50		372.19E+00
			-27.00		380.03E+00
			-26.50		385.47E+00
			-26.00		390.36E+00
			-25.50		394.52E+00
			-25.00		398.26E+00
			-24.50		401.10E+00
			-24.00		403.72E+00
			-23.50		405.60E+00
			-23.00		407.14E+00
			-22.50		408.57E+00
			-22.00		410.00E+00
			-21.50		411.07E+00
			-21.00		412.16E+00
			-20.50		413.72E+00
			-20.00		415.17E+00
			-19.50		416.17E+00
			-19.00		417.19E+00
			-18.50		418.08E+00
			-18.00		418.81E+00
			-17.50		419.35E+00
			-17.00		419.90E+00
			-16.50		420.68E+00
			-16.00		421.36E+00
			-15.50		421.87E+00
			-15.00		422.50E+00
			-14.50		423.13E+00
			-14.00		423.66E+00
			-13.50		424.32E+00
			-13.00		425.06E+00
			-12.50		425.35E+00
			-12.00		425.34E+00
			-11.50		425.62E+00
			-11.00		426.28E+00
			-10.50		426.98E+00
			-10.00		427.48E+00
			-9.50		427.85E+00
			-9.00		428.25E+00
			-8.50		428.54E+00
			-8.00		428.89E+00
			-7.50		429.53E+00
			-7.00		430.08E+00
			-6.50		430.16E+00
			-6.00		430.29E+00
			-5.50		430.67E+00
			-5.00		430.99E+00
			-4.50		431.23E+00
			-4.00		431.51E+00
			-3.50		431.51E+00
			-3.00		431.35E+00
			-2.50		431.60E+00
			-2.00		432.05E+00
			-1.50		431.94E+00
			-1.00		431.68E+00
			-0.50		431.71E+00
			0.00		431.75E+00
			0.50		431.71E+00
			1.00		431.68E+00
			1.50		431.94E+00
			2.00		432.05E+00
			2.50		431.60E+00
			3.00		431.35E+00
			3.50		431.51E+00
			4.00		431.51E+00
			4.50		431.23E+00
			5.00		430.99E+00
			5.50		430.67E+00
			6.00		430.29E+00
			6.50		430.16E+00
			7.00		430.08E+00
			7.50		429.53E+00
			8.00		428.89E+00
			8.50		428.54E+00
			9.00		428.25E+00
			9.50		427.85E+00
			10.00		427.48E+00
			10.50		426.98E+00
			11.00		426.28E+00
			11.50		425.62E+00
			12.00		425.34E+00
			12.50		425.35E+00
			13.00		425.06E+00
			13.50		424.32E+00
			14.00		423.66E+00
			14.50		423.13E+00
			15.00		422.50E+00
			15.50		421.87E+00
			16.00		421.36E+00
			16.50		420.68E+00
			17.00		419.90E+00
			17.50		419.35E+00
			18.00		418.81E+00
			18.50		418.08E+00
			19.00		417.19E+00
			19.50		416.17E+00
			20.00		415.17E+00
			20.50		413.72E+00
			21.00		412.16E+00
			21.50		411.07E+00
			22.00		410.00E+00
			22.50		408.57E+00
			23.00		407.14E+00
			23.50		405.60E+00
			24.00		403.72E+00
			24.50		401.10E+00
			25.00		398.26E+00
			25.50		394.52E+00
			26.00		390.36E+00
			26.50		385.47E+00
			27.00		380.03E+00
			27.50		372.19E+00
			28.00		363.29E+00
			28.50		351.61E+00
			29.00		338.19E+00
			29.50		320.94E+00
			30.00		302.26E+00
			30.50		280.54E+00
			31.00		257.84E+00
			31.50		233.89E+00
			32.00		209.74E+00
			32.50		185.41E+00
			33.00		161.27E+00
			33.50		138.65E+00
			34.00		117.03E+00
			34.50		98.223E+00
			35.00		80.813E+00
			35.50		66.648E+00
			36.00		54.163E+00
			36.50		45.154E+00
			37.00		37.523E+00
			37.50		32.369E+00
			38.00		27.978E+00
			38.50		25.004E+00
			39.00		22.496E+00
			39.50		20.673E+00
			40.00		19.030E+00
			40.50		17.802E+00
			41.00		16.707E+00
			41.50		15.776E+00
			42.00		14.917E+00
			42.50		14.214E+00
			43.00		13.537E+00
			43.50		12.913E+00
			44.00		12.356E+00
			44.50		11.894E+00
			45.00		11.437E+00
			45.50		11.047E+00
			46.00		10.693E+00
			46.50		10.322E+00
			47.00		9.9448E+00
			47.50		9.6218E+00
			48.00		9.3358E+00
			48.50		9.0975E+00
			49.00		8.8512E+00
			49.50		8.5877E+00
			50.00		8.3440E+00
			50.50		8.1679E+00
			51.00		7.9971E+00
			51.50		7.7958E+00
			52.00		7.6026E+00
			52.50		7.4508E+00
			53.00		7.2954E+00
			53.50		7.1321E+00
			54.00		6.9867E+00
			54.50		6.8514E+00
			55.00		6.6961E+00
			55.50		6.5427E+00
			56.00		6.4233E+00
			56.50		6.3148E+00
			57.00		6.1903E+00
			57.50		6.0910E+00
			58.00		5.9928E+00
			58.50		5.8619E+00
			59.00		5.7408E+00
			59.50		5.6604E+00
			60.00		5.5327E+00
		END_DATA
	END_SCAN  1
	BEGIN_SCAN  2
		TASK_NAME=tba PDD Profiles
		PROGRAM=WaterTankScans
		COMMENT=Mater Olbia
		MEAS_DATE=10-Mar-2022 18:45:52
		LINAC=MRIdian
		MODALITY=X
		ISOCENTER=900.00
		INPLANE_AXIS=Y
		CROSSPLANE_AXIS=X
		DEPTH_AXIS=Depth
		INPLANE_AXIS_DIR=TARGET_GUN
		CROSSPLANE_AXIS_DIR=LEFT_RIGHT
		DEPTH_AXIS_DIR=UP_DOWN
		ENERGY=6.00
		NOMINAL_DMAX=15.00
		SSD=850.00
		SCD=450.00
		WEDGE_ANGLE=0.00
		FIELD_INPLANE=66.40
		FIELD_CROSSPLANE=66.40
		FIELD_TYPE=RECTANGULAR
		GANTRY=0.00
		GANTRY_UPRIGHT_POSITION=0
		GANTRY_ROTATION=CW
		COLL_ANGLE=0.00
		COLL_OFFSET_INPLANE=0.00
		COLL_OFFSET_CROSSPLANE=0.00
		SCAN_DEVICE=BeamScan
		SCAN_DEVICE_SETUP=BARA_LEFT_RIGHT
		ELECTROMETER=BeamScan
		RANGE_FIELD=LOW
		RANGE_REFERENCE=MEDIUM
		DETECTOR=THIMBLE_CHAMBER
		DETECTOR_RADIUS=2.40
		DETECTOR_NAME=A28MR
		DETECTOR_SN=-
		DETECTOR_CALIBRATION=588000000.00
		DETECTOR_IS_CALIBRATED=0
		DETECTOR_REFERENCE=THIMBLE_CHAMBER
		DETECTOR_REFERENCE_RADIUS=2.75
		DETECTOR_REFERENCE_NAME=A28MR
		DETECTOR_REFERENCE_SN=â€”
		DETECTOR_REFERENCE_IS_CALIBRATED=0
		DETECTOR_REFERENCE_CALIBRATION=303000000.00
		DETECTOR_HV=300.0
		DETECTOR_REFERENCE_HV=300.0
		DETECTOR_ORIENTATION=HORIZONTAL
		FILTER=FFF
		SCAN_SPEED_PROFILE=10.00
		SCAN_PROF_SPEED_DEP=DEPTH
		SCAN_SPEED_PDD=0.00
		SCAN_PDD_SPEED_DEP=ENERGY
		DETECTOR_TYPE=A28MR
		REF_FIELD_DEPTH=220.00
		REF_FIELD_DEFINED=ISOCENTER
		REF_FIELD_INPLANE=100.00
		REF_FIELD_CROSSPLANE=100.00
		REF_SCAN_POSITIONS=-85.00;-84.00;-83.00;-82.00;-81.00;-80.00;-79.00;-78.00;-77.00;-76.00;-75.00;-74.00;-73.00;-72.00;-71.00;-70.00;-69.00;-68.00;-67.00;-66.00;-65.00;-64.00;-63.00;-62.00;-61.00;-60.00;-59.00;-58.00;-57.00;-56.00;-55.00;-54.00;-53.00;-52.00;-51.00;-50.00;-49.00;-48.00;-47.00;-46.00;-45.00;-44.00;-43.00;-42.00;-41.00;-40.00;-39.00;-38.00;-37.00;-36.00;-35.00;-34.00;-33.00;-32.00;-31.00;-30.00;-29.00;-28.00;-27.00;-26.00;-25.00;-24.00;-23.00;-22.00;-21.00;-20.00;-19.00;-18.00;-17.00;-16.00;-15.00;-14.00;-13.00;-12.00;-11.00;-10.00;-9.00;-8.00;-7.00;-6.00;-5.00;-4.00;-3.00;-2.00;-1.00;0.00;1.00;2.00;3.00;4.00;5.00;6.00;7.00;8.00;9.00;10.00;11.00;12.00;13.00;14.00;15.00;16.00;17.00;18.00;19.00;20.00;21.00;22.00;23.00;24.00;25.00;26.00;27.00;28.00;29.00;30.00;31.00;32.00;33.00;34.00;35.00;36.00;37.00;38.00;39.00;40.00;41.00;42.00;43.00;44.00;45.00;46.00;47.00;48.00;49.00;50.00;51.00;52.00;53.00;54.00;55.00;56.00;57.00;58.00;59.00;60.00;61.00;62.00;63.00;64.00;65.00;66.00;67.00;68.00;69.00;70.00;71.00;72.00;73.00;74.00;75.00;76.00;77.00;78.00;79.00;80.00;81.00;82.00;83.00;84.00;85.00;
		REF_OVERSCAN_FACTOR=1.00
		SCAN_CURVETYPE=CROSSPLANE_PROFILE
		SCAN_DEPTH=55.00
		SCAN_OFFAXIS_INPLANE=0.00
		SCAN_OFFAXIS_CROSSPLANE=0.00
		SCAN_ANGLE=0.00
		SCAN_DIAGONAL=NOT_DIAGONAL
		SCAN_DIRECTION=POSITIVE
		MEAS_MEDIUM=WATER
		MEAS_PRESET=MEAS_CONTINUOUS_REFERENCE_SCAN
		MEAS_TIME=0.100
		MEAS_UNIT=A.U.
		INCLINATION_ANGLE=0.00
		PRESSURE=1013.25
		TEMPERATURE=20.00
		NORM_TEMPERATURE=20.00
		CORRECTION_FACTOR=1.0000
		EXPECTED_MAX_DOSE_RATE=3.00
		EPOM_DEPTH_SHIFT=0.2
		EPOM_MODE=SHIFT_PROTOCOL
		CORRECTIONS=SSD_CORR;CAX_CORR;ADD_CURVES_CORR;MODIFIED_CORR;SYMMETRY_CORR;INTERPOLATED_CORR;
		BEGIN_DATA
			-60.00		8.6706E+00
			-59.50		8.9588E+00
			-59.00		9.1287E+00
			-58.50		9.3238E+00
			-58.00		9.4846E+00
			-57.50		9.5637E+00
			-57.00		9.7011E+00
			-56.50		9.8686E+00
			-56.00		10.277E+00
			-55.50		10.424E+00
			-55.00		10.644E+00
			-54.50		10.782E+00
			-54.00		11.029E+00
			-53.50		11.316E+00
			-53.00		11.680E+00
			-52.50		11.923E+00
			-52.00		12.183E+00
			-51.50		12.420E+00
			-51.00		12.805E+00
			-50.50		13.158E+00
			-50.00		13.551E+00
			-49.50		13.899E+00
			-49.00		14.232E+00
			-48.50		14.703E+00
			-48.00		15.002E+00
			-47.50		15.514E+00
			-47.00		16.116E+00
			-46.50		16.620E+00
			-46.00		17.284E+00
			-45.50		17.868E+00
			-45.00		18.483E+00
			-44.50		19.208E+00
			-44.00		20.027E+00
			-43.50		20.741E+00
			-43.00		21.693E+00
			-42.50		22.706E+00
			-42.00		24.010E+00
			-41.50		25.363E+00
			-41.00		26.843E+00
			-40.50		28.686E+00
			-40.00		31.107E+00
			-39.50		34.085E+00
			-39.00		37.648E+00
			-38.50		42.474E+00
			-38.00		48.558E+00
			-37.50		56.449E+00
			-37.00		65.732E+00
			-36.50		77.407E+00
			-36.00		90.872E+00
			-35.50		106.41E+00
			-35.00		123.18E+00
			-34.50		141.84E+00
			-34.00		160.99E+00
			-33.50		181.10E+00
			-33.00		201.16E+00
			-32.50		220.64E+00
			-32.00		240.10E+00
			-31.50		258.11E+00
			-31.00		275.35E+00
			-30.50		290.10E+00
			-30.00		303.75E+00
			-29.50		314.61E+00
			-29.00		324.06E+00
			-28.50		331.51E+00
			-28.00		338.10E+00
			-27.50		343.04E+00
			-27.00		347.29E+00
			-26.50		350.90E+00
			-26.00		354.01E+00
			-25.50		356.38E+00
			-25.00		358.59E+00
			-24.50		360.74E+00
			-24.00		362.44E+00
			-23.50		363.94E+00
			-23.00		365.39E+00
			-22.50		366.53E+00
			-22.00		367.84E+00
			-21.50		369.15E+00
			-21.00		370.40E+00
			-20.50		371.18E+00
			-20.00		371.97E+00
			-19.50		372.65E+00
			-19.00		373.39E+00
			-18.50		374.54E+00
			-18.00		375.64E+00
			-17.50		376.43E+00
			-17.00		377.01E+00
			-16.50		377.51E+00
			-16.00		377.96E+00
			-15.50		378.61E+00
			-15.00		379.22E+00
			-14.50		379.87E+00
			-14.00		380.51E+00
			-13.50		380.95E+00
			-13.00		381.32E+00
			-12.50		381.76E+00
			-12.00		382.23E+00
			-11.50		382.57E+00
			-11.00		383.24E+00
			-10.50		383.85E+00
			-10.00		384.29E+00
			-9.50		384.75E+00
			-9.00		385.07E+00
			-8.50		385.49E+00
			-8.00		385.77E+00
			-7.50		385.93E+00
			-7.00		386.02E+00
			-6.50		386.44E+00
			-6.00		386.89E+00
			-5.50		386.96E+00
			-5.00		386.98E+00
			-4.50		387.30E+00
			-4.00		387.51E+00
			-3.50		387.54E+00
			-3.00		387.67E+00
			-2.50		387.83E+00
			-2.00		388.23E+00
			-1.50		388.13E+00
			-1.00		388.08E+00
			-0.50		388.12E+00
			0.00		388.12E+00
			0.50		388.12E+00
			1.00		388.08E+00
			1.50		388.13E+00
			2.00		388.23E+00
			2.50		387.83E+00
			3.00		387.67E+00
			3.50		387.54E+00
			4.00		387.51E+00
			4.50		387.30E+00
			5.00		386.98E+00
			5.50		386.96E+00
			6.00		386.89E+00
			6.50		386.44E+00
			7.00		386.02E+00
			7.50		385.93E+00
			8.00		385.77E+00
			8.50		385.49E+00
			9.00		385.07E+00
			9.50		384.75E+00
			10.00		384.29E+00
			10.50		383.85E+00
			11.00		383.24E+00
			11.50		382.57E+00
			12.00		382.23E+00
			12.50		381.76E+00
			13.00		381.32E+00
			13.50		380.95E+00
			14.00		380.51E+00
			14.50		379.87E+00
			15.00		379.22E+00
			15.50		378.61E+00
			16.00		377.96E+00
			16.50		377.51E+00
			17.00		377.01E+00
			17.50		376.43E+00
			18.00		375.64E+00
			18.50		374.54E+00
			19.00		373.39E+00
			19.50		372.65E+00
			20.00		371.97E+00
			20.50		371.18E+00
			21.00		370.40E+00
			21.50		369.15E+00
			22.00		367.84E+00
			22.50		366.53E+00
			23.00		365.39E+00
			23.50		363.94E+00
			24.00		362.44E+00
			24.50		360.74E+00
			25.00		358.59E+00
			25.50		356.38E+00
			26.00		354.01E+00
			26.50		350.90E+00
			27.00		347.29E+00
			27.50		343.04E+00
			28.00		338.10E+00
			28.50		331.51E+00
			29.00		324.06E+00
			29.50		314.61E+00
			30.00		303.75E+00
			30.50		290.10E+00
			31.00		275.35E+00
			31.50		258.11E+00
			32.00		240.10E+00
			32.50		220.64E+00
			33.00		201.16E+00
			33.50		181.10E+00
			34.00		160.99E+00
			34.50		141.84E+00
			35.00		123.18E+00
			35.50		106.41E+00
			36.00		90.872E+00
			36.50		77.407E+00
			37.00		65.732E+00
			37.50		56.449E+00
			38.00		48.558E+00
			38.50		42.474E+00
			39.00		37.648E+00
			39.50		34.085E+00
			40.00		31.107E+00
			40.50		28.686E+00
			41.00		26.843E+00
			41.50		25.363E+00
			42.00		24.010E+00
			42.50		22.706E+00
			43.00		21.693E+00
			43.50		20.741E+00
			44.00		20.027E+00
			44.50		19.208E+00
			45.00		18.483E+00
			45.50		17.868E+00
			46.00		17.284E+00
			46.50		16.620E+00
			47.00		16.116E+00
			47.50		15.514E+00
			48.00		15.002E+00
			48.50		14.703E+00
			49.00		14.232E+00
			49.50		13.899E+00
			50.00		13.551E+00
			50.50		13.158E+00
			51.00		12.805E+00
			51.50		12.420E+00
			52.00		12.183E+00
			52.50		11.923E+00
			53.00		11.680E+00
			53.50		11.316E+00
			54.00		11.029E+00
			54.50		10.782E+00
			55.00		10.644E+00
			55.50		10.424E+00
			56.00		10.277E+00
			56.50		9.8686E+00
			57.00		9.7011E+00
			57.50		9.5637E+00
			58.00		9.4846E+00
			58.50		9.3238E+00
			59.00		9.1287E+00
			59.50		8.9588E+00
			60.00		8.6706E+00
		END_DATA
	END_SCAN  2
	BEGIN_SCAN  3
		TASK_NAME=tba PDD Profiles
		PROGRAM=WaterTankScans
		COMMENT=Mater Olbia
		MEAS_DATE=10-Mar-2022 18:46:12
		LINAC=MRIdian
		MODALITY=X
		ISOCENTER=900.00
		INPLANE_AXIS=Y
		CROSSPLANE_AXIS=X
		DEPTH_AXIS=Depth
		INPLANE_AXIS_DIR=TARGET_GUN
		CROSSPLANE_AXIS_DIR=LEFT_RIGHT
		DEPTH_AXIS_DIR=UP_DOWN
		ENERGY=6.00
		NOMINAL_DMAX=15.00
		SSD=850.00
		SCD=450.00
		WEDGE_ANGLE=0.00
		FIELD_INPLANE=66.40
		FIELD_CROSSPLANE=66.40
		FIELD_TYPE=RECTANGULAR
		GANTRY=0.00
		GANTRY_UPRIGHT_POSITION=0
		GANTRY_ROTATION=CW
		COLL_ANGLE=0.00
		COLL_OFFSET_INPLANE=0.00
		COLL_OFFSET_CROSSPLANE=0.00
		SCAN_DEVICE=BeamScan
		SCAN_DEVICE_SETUP=BARA_LEFT_RIGHT
		ELECTROMETER=BeamScan
		RANGE_FIELD=LOW
		RANGE_REFERENCE=MEDIUM
		DETECTOR=THIMBLE_CHAMBER
		DETECTOR_RADIUS=2.40
		DETECTOR_NAME=A28MR
		DETECTOR_SN=-
		DETECTOR_CALIBRATION=588000000.00
		DETECTOR_IS_CALIBRATED=0
		DETECTOR_REFERENCE=THIMBLE_CHAMBER
		DETECTOR_REFERENCE_RADIUS=2.75
		DETECTOR_REFERENCE_NAME=A28MR
		DETECTOR_REFERENCE_SN=â€”
		DETECTOR_REFERENCE_IS_CALIBRATED=0
		DETECTOR_REFERENCE_CALIBRATION=303000000.00
		DETECTOR_HV=300.0
		DETECTOR_REFERENCE_HV=300.0
		DETECTOR_ORIENTATION=HORIZONTAL
		FILTER=FFF
		SCAN_SPEED_PROFILE=10.00
		SCAN_PROF_SPEED_DEP=DEPTH
		SCAN_SPEED_PDD=0.00
		SCAN_PDD_SPEED_DEP=ENERGY
		DETECTOR_TYPE=A28MR
		REF_FIELD_DEPTH=220.00
		REF_FIELD_DEFINED=ISOCENTER
		REF_FIELD_INPLANE=100.00
		REF_FIELD_CROSSPLANE=100.00
		REF_SCAN_POSITIONS=-85.00;-84.00;-83.00;-82.00;-81.00;-80.00;-79.00;-78.00;-77.00;-76.00;-75.00;-74.00;-73.00;-72.00;-71.00;-70.00;-69.00;-68.00;-67.00;-66.00;-65.00;-64.00;-63.00;-62.00;-61.00;-60.00;-59.00;-58.00;-57.00;-56.00;-55.00;-54.00;-53.00;-52.00;-51.00;-50.00;-49.00;-48.00;-47.00;-46.00;-45.00;-44.00;-43.00;-42.00;-41.00;-40.00;-39.00;-38.00;-37.00;-36.00;-35.00;-34.00;-33.00;-32.00;-31.00;-30.00;-29.00;-28.00;-27.00;-26.00;-25.00;-24.00;-23.00;-22.00;-21.00;-20.00;-19.00;-18.00;-17.00;-16.00;-15.00;-14.00;-13.00;-12.00;-11.00;-10.00;-9.00;-8.00;-7.00;-6.00;-5.00;-4.00;-3.00;-2.00;-1.00;0.00;1.00;2.00;3.00;4.00;5.00;6.00;7.00;8.00;9.00;10.00;11.00;12.00;13.00;14.00;15.00;16.00;17.00;18.00;19.00;20.00;21.00;22.00;23.00;24.00;25.00;26.00;27.00;28.00;29.00;30.00;31.00;32.00;33.00;34.00;35.00;36.00;37.00;38.00;39.00;40.00;41.00;42.00;43.00;44.00;45.00;46.00;47.00;48.00;49.00;50.00;51.00;52.00;53.00;54.00;55.00;56.00;57.00;58.00;59.00;60.00;61.00;62.00;63.00;64.00;65.00;66.00;67.00;68.00;69.00;70.00;71.00;72.00;73.00;74.00;75.00;76.00;77.00;78.00;79.00;80.00;81.00;82.00;83.00;84.00;85.00;
		REF_OVERSCAN_FACTOR=1.00
		SCAN_CURVETYPE=CROSSPLANE_PROFILE
		SCAN_DEPTH=100.00
		SCAN_OFFAXIS_INPLANE=0.00
		SCAN_OFFAXIS_CROSSPLANE=0.00
		SCAN_ANGLE=0.00
		SCAN_DIAGONAL=NOT_DIAGONAL
		SCAN_DIRECTION=POSITIVE
		MEAS_MEDIUM=WATER
		MEAS_PRESET=MEAS_CONTINUOUS_REFERENCE_SCAN
		MEAS_TIME=0.100
		MEAS_UNIT=A.U.
		INCLINATION_ANGLE=0.00
		PRESSURE=1013.25
		TEMPERATURE=20.00
		NORM_TEMPERATURE=20.00
		CORRECTION_FACTOR=1.0000
		EXPECTED_MAX_DOSE_RATE=3.00
		EPOM_DEPTH_SHIFT=0.2
		EPOM_MODE=SHIFT_PROTOCOL
		CORRECTIONS=SSD_CORR;CAX_CORR;ADD_CURVES_CORR;MODIFIED_CORR;SYMMETRY_CORR;INTERPOLATED_CORR;
		BEGIN_DATA
			-60.00		11.058E+00
			-59.50		11.290E+00
