BEGIN_SCAN_DATA
	FORMAT=CC-Export V1.9                  
	FILE_CREATION_DATE=11-Mar-2022 16:51:10
	LAST_MODIFIED=11-Mar-2022 16:51:10
	BEGIN_SCAN  1
		TASK_NAME=tba PDD Profiles
		PROGRAM=WaterTankScans
		COMMENT=Gemelli
		MEAS_DATE=08-Feb-2021 09:38:10
		LINAC=MRIdian
		MODALITY=X
		ISOCENTER=900.00
		INPLANE_AXIS=Y
		CROSSPLANE_AXIS=X
		DEPTH_AXIS=Depth
		INPLANE_AXIS_DIR=TARGET_GUN
		CROSSPLANE_AXIS_DIR=LEFT_RIGHT
		DEPTH_AXIS_DIR=UP_DOWN
		ENERGY=6.00
		NOMINAL_DMAX=15.00
		SSD=850.00
		SCD=450.00
		WEDGE_ANGLE=0.00
		FIELD_INPLANE=41.50
		FIELD_CROSSPLANE=41.50
		FIELD_TYPE=RECTANGULAR
		GANTRY=0.00
		GANTRY_UPRIGHT_POSITION=0
		GANTRY_ROTATION=CW
		COLL_ANGLE=0.00
		COLL_OFFSET_INPLANE=0.00
		COLL_OFFSET_CROSSPLANE=0.00
		SCAN_DEVICE=BeamScan
		SCAN_DEVICE_SETUP=BARA_LEFT_RIGHT
		ELECTROMETER=BeamScan
		RANGE_FIELD=LOW
		RANGE_REFERENCE=MEDIUM
		DETECTOR=THIMBLE_CHAMBER
		DETECTOR_RADIUS=2.40
		DETECTOR_NAME=A28MR
		DETECTOR_SN=-
		DETECTOR_CALIBRATION=588000000.00
		DETECTOR_IS_CALIBRATED=0
		DETECTOR_REFERENCE=THIMBLE_CHAMBER
		DETECTOR_REFERENCE_RADIUS=2.75
		DETECTOR_REFERENCE_NAME=A28MR
		DETECTOR_REFERENCE_SN=â€”
		DETECTOR_REFERENCE_IS_CALIBRATED=0
		DETECTOR_REFERENCE_CALIBRATION=303000000.00
		DETECTOR_HV=300.0
		DETECTOR_REFERENCE_HV=300.0
		DETECTOR_ORIENTATION=HORIZONTAL
		FILTER=FFF
		SCAN_SPEED_PROFILE=10.00
		SCAN_PROF_SPEED_DEP=DEPTH
		SCAN_SPEED_PDD=0.00
		SCAN_PDD_SPEED_DEP=ENERGY
		DETECTOR_TYPE=A28MR
		REF_FIELD_DEPTH=220.00
		REF_FIELD_DEFINED=ISOCENTER
		REF_FIELD_INPLANE=100.00
		REF_FIELD_CROSSPLANE=100.00
		REF_SCAN_POSITIONS=-85.00;-84.00;-83.00;-82.00;-81.00;-80.00;-79.00;-78.00;-77.00;-76.00;-75.00;-74.00;-73.00;-72.00;-71.00;-70.00;-69.00;-68.00;-67.00;-66.00;-65.00;-64.00;-63.00;-62.00;-61.00;-60.00;-59.00;-58.00;-57.00;-56.00;-55.00;-54.00;-53.00;-52.00;-51.00;-50.00;-49.00;-48.00;-47.00;-46.00;-45.00;-44.00;-43.00;-42.00;-41.00;-40.00;-39.00;-38.00;-37.00;-36.00;-35.00;-34.00;-33.00;-32.00;-31.00;-30.00;-29.00;-28.00;-27.00;-26.00;-25.00;-24.00;-23.00;-22.00;-21.00;-20.00;-19.00;-18.00;-17.00;-16.00;-15.00;-14.00;-13.00;-12.00;-11.00;-10.00;-9.00;-8.00;-7.00;-6.00;-5.00;-4.00;-3.00;-2.00;-1.00;0.00;1.00;2.00;3.00;4.00;5.00;6.00;7.00;8.00;9.00;10.00;11.00;12.00;13.00;14.00;15.00;16.00;17.00;18.00;19.00;20.00;21.00;22.00;23.00;24.00;25.00;26.00;27.00;28.00;29.00;30.00;31.00;32.00;33.00;34.00;35.00;36.00;37.00;38.00;39.00;40.00;41.00;42.00;43.00;44.00;45.00;46.00;47.00;48.00;49.00;50.00;51.00;52.00;53.00;54.00;55.00;56.00;57.00;58.00;59.00;60.00;61.00;62.00;63.00;64.00;65.00;66.00;67.00;68.00;69.00;70.00;71.00;72.00;73.00;74.00;75.00;76.00;77.00;78.00;79.00;80.00;81.00;82.00;83.00;84.00;85.00;
		REF_OVERSCAN_FACTOR=1.00
		SCAN_CURVETYPE=CROSSPLANE_PROFILE
		SCAN_DEPTH=20.00
		SCAN_OFFAXIS_INPLANE=0.00
		SCAN_OFFAXIS_CROSSPLANE=0.00
		SCAN_ANGLE=0.00
		SCAN_DIAGONAL=NOT_DIAGONAL
		SCAN_DIRECTION=POSITIVE
		MEAS_MEDIUM=WATER
		MEAS_PRESET=MEAS_CONTINUOUS_REFERENCE_SCAN
		MEAS_TIME=0.100
		MEAS_UNIT=A.U.
		INCLINATION_ANGLE=0.00
		PRESSURE=1013.25
		TEMPERATURE=20.00
		NORM_TEMPERATURE=20.00
		CORRECTION_FACTOR=1.0000
		EXPECTED_MAX_DOSE_RATE=3.00
		EPOM_DEPTH_SHIFT=0.2
		EPOM_MODE=SHIFT_PROTOCOL
		CORRECTIONS=CAX_CORR;INTERPOLATED_CORR;SYMMETRY_CORR;
		BEGIN_DATA
			-50.00		2.5408E+00
			-49.50		2.7720E+00
			-49.00		2.8176E+00
			-48.50		2.8718E+00
			-48.00		2.9351E+00
			-47.50		2.9997E+00
			-47.00		3.0653E+00
			-46.50		3.1335E+00
			-46.00		3.1996E+00
			-45.50		3.2706E+00
			-45.00		3.3458E+00
			-44.50		3.4220E+00
			-44.00		3.4978E+00
			-43.50		3.5795E+00
			-43.00		3.6680E+00
			-42.50		3.7644E+00
			-42.00		3.8576E+00
			-41.50		3.9569E+00
			-41.00		4.0595E+00
			-40.50		4.1658E+00
			-40.00		4.2787E+00
			-39.50		4.3924E+00
			-39.00		4.5086E+00
			-38.50		4.6574E+00
			-38.00		4.8134E+00
			-37.50		4.9658E+00
			-37.00		5.1243E+00
			-36.50		5.3046E+00
			-36.00		5.4933E+00
			-35.50		5.6930E+00
			-35.00		5.8988E+00
			-34.50		6.1433E+00
			-34.00		6.4033E+00
			-33.50		6.6769E+00
			-33.00		6.9649E+00
			-32.50		7.3117E+00
			-32.00		7.6790E+00
			-31.50		8.0883E+00
			-31.00		8.5259E+00
			-30.50		9.0466E+00
			-30.00		9.6076E+00
			-29.50		10.304E+00
			-29.00		11.063E+00
			-28.50		11.977E+00
			-28.00		12.976E+00
			-27.50		14.307E+00
			-27.00		15.795E+00
			-26.50		17.844E+00
			-26.00		20.155E+00
			-25.50		23.419E+00
			-25.00		27.253E+00
			-24.50		32.873E+00
			-24.00		39.685E+00
			-23.50		49.913E+00
			-23.00		61.994E+00
			-22.50		78.874E+00
			-22.00		97.313E+00
			-21.50		118.83E+00
			-21.00		141.33E+00
			-20.50		165.61E+00
			-20.00		190.47E+00
			-19.50		216.01E+00
			-19.00		241.35E+00
			-18.50		265.21E+00
			-18.00		288.35E+00
			-17.50		309.15E+00
			-17.00		328.47E+00
			-16.50		343.73E+00
			-16.00		357.20E+00
			-15.50		366.41E+00
			-15.00		374.20E+00
			-14.50		379.77E+00
			-14.00		384.77E+00
			-13.50		388.39E+00
			-13.00		391.41E+00
			-12.50		393.64E+00
			-12.00		395.68E+00
			-11.50		397.16E+00
			-11.00		398.46E+00
			-10.50		399.57E+00
			-10.00		400.63E+00
			-9.50		401.55E+00
			-9.00		402.39E+00
			-8.50		403.10E+00
			-8.00		403.78E+00
			-7.50		404.33E+00
			-7.00		404.82E+00
			-6.50		405.26E+00
			-6.00		405.64E+00
			-5.50		405.77E+00
			-5.00		405.86E+00
			-4.50		406.11E+00
			-4.00		406.41E+00
			-3.50		406.71E+00
			-3.00		406.99E+00
			-2.50		407.10E+00
			-2.00		407.10E+00
			-1.50		407.13E+00
			-1.00		407.18E+00
			-0.50		407.25E+00
			0.00		407.30E+00
			0.50		407.25E+00
			1.00		407.18E+00
			1.50		407.13E+00
			2.00		407.10E+00
			2.50		407.10E+00
			3.00		406.99E+00
			3.50		406.71E+00
			4.00		406.41E+00
			4.50		406.11E+00
			5.00		405.86E+00
			5.50		405.77E+00
			6.00		405.64E+00
			6.50		405.26E+00
			7.00		404.82E+00
			7.50		404.33E+00
			8.00		403.78E+00
			8.50		403.10E+00
			9.00		402.39E+00
			9.50		401.55E+00
			10.00		400.63E+00
			10.50		399.57E+00
			11.00		398.46E+00
			11.50		397.16E+00
			12.00		395.68E+00
			12.50		393.64E+00
			13.00		391.41E+00
			13.50		388.39E+00
			14.00		384.77E+00
			14.50		379.77E+00
			15.00		374.20E+00
			15.50		366.41E+00
			16.00		357.20E+00
			16.50		343.73E+00
			17.00		328.47E+00
			17.50		309.15E+00
			18.00		288.35E+00
			18.50		265.21E+00
			19.00		241.35E+00
			19.50		216.01E+00
			20.00		190.47E+00
			20.50		165.61E+00
			21.00		141.33E+00
			21.50		118.83E+00
			22.00		97.313E+00
			22.50		78.874E+00
			23.00		61.994E+00
			23.50		49.913E+00
			24.00		39.685E+00
			24.50		32.873E+00
			25.00		27.253E+00
			25.50		23.419E+00
			26.00		20.155E+00
			26.50		17.844E+00
			27.00		15.795E+00
			27.50		14.307E+00
			28.00		12.976E+00
			28.50		11.977E+00
			29.00		11.063E+00
			29.50		10.304E+00
			30.00		9.6076E+00
			30.50		9.0466E+00
			31.00		8.5259E+00
			31.50		8.0883E+00
			32.00		7.6790E+00
			32.50		7.3117E+00
			33.00		6.9649E+00
			33.50		6.6769E+00
			34.00		6.4033E+00
			34.50		6.1433E+00
			35.00		5.8988E+00
			35.50		5.6930E+00
			36.00		5.4933E+00
			36.50		5.3046E+00
			37.00		5.1243E+00
			37.50		4.9658E+00
			38.00		4.8134E+00
			38.50		4.6574E+00
			39.00		4.5086E+00
			39.50		4.3924E+00
			40.00		4.2787E+00
			40.50		4.1658E+00
			41.00		4.0595E+00
			41.50		3.9569E+00
			42.00		3.8576E+00
			42.50		3.7644E+00
			43.00		3.6680E+00
			43.50		3.5795E+00
			44.00		3.4978E+00
			44.50		3.4220E+00
			45.00		3.3458E+00
			45.50		3.2706E+00
			46.00		3.1996E+00
			46.50		3.1335E+00
			47.00		3.0653E+00
			47.50		2.9997E+00
			48.00		2.9351E+00
			48.50		2.8718E+00
			49.00		2.8176E+00
			49.50		2.7720E+00
			50.00		2.5408E+00
		END_DATA
	END_SCAN  1
	BEGIN_SCAN  2
		TASK_NAME=tba PDD Profiles
		PROGRAM=WaterTankScans
		COMMENT=Gemelli
		MEAS_DATE=08-Feb-2021 09:38:10
		LINAC=MRIdian
		MODALITY=X
		ISOCENTER=900.00
		INPLANE_AXIS=Y
		CROSSPLANE_AXIS=X
		DEPTH_AXIS=Depth
		INPLANE_AXIS_DIR=TARGET_GUN
		CROSSPLANE_AXIS_DIR=LEFT_RIGHT
		DEPTH_AXIS_DIR=UP_DOWN
		ENERGY=6.00
		NOMINAL_DMAX=15.00
		SSD=850.00
		SCD=450.00
		WEDGE_ANGLE=0.00
		FIELD_INPLANE=41.50
		FIELD_CROSSPLANE=41.50
		FIELD_TYPE=RECTANGULAR
		GANTRY=0.00
		GANTRY_UPRIGHT_POSITION=0
		GANTRY_ROTATION=CW
		COLL_ANGLE=0.00
		COLL_OFFSET_INPLANE=0.00
		COLL_OFFSET_CROSSPLANE=0.00
		SCAN_DEVICE=BeamScan
		SCAN_DEVICE_SETUP=BARA_LEFT_RIGHT
		ELECTROMETER=BeamScan
		RANGE_FIELD=LOW
		RANGE_REFERENCE=MEDIUM
		DETECTOR=THIMBLE_CHAMBER
		DETECTOR_RADIUS=2.40
		DETECTOR_NAME=A28MR
		DETECTOR_SN=-
		DETECTOR_CALIBRATION=588000000.00
		DETECTOR_IS_CALIBRATED=0
		DETECTOR_REFERENCE=THIMBLE_CHAMBER
		DETECTOR_REFERENCE_RADIUS=2.75
		DETECTOR_REFERENCE_NAME=A28MR
		DETECTOR_REFERENCE_SN=â€”
		DETECTOR_REFERENCE_IS_CALIBRATED=0
		DETECTOR_REFERENCE_CALIBRATION=303000000.00
		DETECTOR_HV=300.0
		DETECTOR_REFERENCE_HV=300.0
		DETECTOR_ORIENTATION=HORIZONTAL
		FILTER=FFF
		SCAN_SPEED_PROFILE=10.00
		SCAN_PROF_SPEED_DEP=DEPTH
		SCAN_SPEED_PDD=0.00
		SCAN_PDD_SPEED_DEP=ENERGY
		DETECTOR_TYPE=A28MR
		REF_FIELD_DEPTH=220.00
		REF_FIELD_DEFINED=ISOCENTER
		REF_FIELD_INPLANE=100.00
		REF_FIELD_CROSSPLANE=100.00
		REF_SCAN_POSITIONS=-85.00;-84.00;-83.00;-82.00;-81.00;-80.00;-79.00;-78.00;-77.00;-76.00;-75.00;-74.00;-73.00;-72.00;-71.00;-70.00;-69.00;-68.00;-67.00;-66.00;-65.00;-64.00;-63.00;-62.00;-61.00;-60.00;-59.00;-58.00;-57.00;-56.00;-55.00;-54.00;-53.00;-52.00;-51.00;-50.00;-49.00;-48.00;-47.00;-46.00;-45.00;-44.00;-43.00;-42.00;-41.00;-40.00;-39.00;-38.00;-37.00;-36.00;-35.00;-34.00;-33.00;-32.00;-31.00;-30.00;-29.00;-28.00;-27.00;-26.00;-25.00;-24.00;-23.00;-22.00;-21.00;-20.00;-19.00;-18.00;-17.00;-16.00;-15.00;-14.00;-13.00;-12.00;-11.00;-10.00;-9.00;-8.00;-7.00;-6.00;-5.00;-4.00;-3.00;-2.00;-1.00;0.00;1.00;2.00;3.00;4.00;5.00;6.00;7.00;8.00;9.00;10.00;11.00;12.00;13.00;14.00;15.00;16.00;17.00;18.00;19.00;20.00;21.00;22.00;23.00;24.00;25.00;26.00;27.00;28.00;29.00;30.00;31.00;32.00;33.00;34.00;35.00;36.00;37.00;38.00;39.00;40.00;41.00;42.00;43.00;44.00;45.00;46.00;47.00;48.00;49.00;50.00;51.00;52.00;53.00;54.00;55.00;56.00;57.00;58.00;59.00;60.00;61.00;62.00;63.00;64.00;65.00;66.00;67.00;68.00;69.00;70.00;71.00;72.00;73.00;74.00;75.00;76.00;77.00;78.00;79.00;80.00;81.00;82.00;83.00;84.00;85.00;
		REF_OVERSCAN_FACTOR=1.00
		SCAN_CURVETYPE=CROSSPLANE_PROFILE
		SCAN_DEPTH=55.00
		SCAN_OFFAXIS_INPLANE=0.00
		SCAN_OFFAXIS_CROSSPLANE=0.00
		SCAN_ANGLE=0.00
		SCAN_DIAGONAL=NOT_DIAGONAL
		SCAN_DIRECTION=POSITIVE
		MEAS_MEDIUM=WATER
		MEAS_PRESET=MEAS_CONTINUOUS_REFERENCE_SCAN
		MEAS_TIME=0.100
		MEAS_UNIT=A.U.
		INCLINATION_ANGLE=0.00
		PRESSURE=1013.25
		TEMPERATURE=20.00
		NORM_TEMPERATURE=20.00
		CORRECTION_FACTOR=1.0000
		EXPECTED_MAX_DOSE_RATE=3.00
		EPOM_DEPTH_SHIFT=0.2
		EPOM_MODE=SHIFT_PROTOCOL
		CORRECTIONS=CAX_CORR;INTERPOLATED_CORR;SYMMETRY_CORR;
		BEGIN_DATA
			-50.00		4.2789E+00
			-49.50		4.1743E+00
			-49.00		4.2606E+00
			-48.50		4.3639E+00
			-48.00		4.4732E+00
			-47.50		4.5760E+00
			-47.00		4.6752E+00
			-46.50		4.7877E+00
			-46.00		4.9029E+00
			-45.50		5.0224E+00
			-45.00		5.1432E+00
			-44.50		5.2703E+00
			-44.00		5.4002E+00
			-43.50		5.5336E+00
			-43.00		5.6679E+00
			-42.50		5.8243E+00
			-42.00		5.9844E+00
			-41.50		6.1496E+00
			-41.00		6.3168E+00
			-40.50		6.4896E+00
			-40.00		6.6637E+00
			-39.50		6.8527E+00
			-39.00		7.0470E+00
			-38.50		7.2667E+00
			-38.00		7.4881E+00
			-37.50		7.7189E+00
			-37.00		7.9619E+00
			-36.50		8.2412E+00
			-36.00		8.5187E+00
			-35.50		8.8117E+00
			-35.00		9.1164E+00
			-34.50		9.4546E+00
			-34.00		9.7977E+00
			-33.50		10.191E+00
			-33.00		10.597E+00
			-32.50		11.064E+00
			-32.00		11.552E+00
			-31.50		12.104E+00
			-31.00		12.671E+00
			-30.50		13.361E+00
			-30.00		14.093E+00
			-29.50		14.957E+00
			-29.00		15.867E+00
			-28.50		17.073E+00
			-28.00		18.360E+00
			-27.50		20.062E+00
			-27.00		21.917E+00
			-26.50		24.547E+00
			-26.00		27.409E+00
			-25.50		31.690E+00
			-25.00		36.424E+00
			-24.50		43.966E+00
			-24.00		52.207E+00
			-23.50		64.412E+00
			-23.00		77.376E+00
			-22.50		93.143E+00
			-22.00		109.50E+00
			-21.50		127.86E+00
			-21.00		146.54E+00
			-20.50		165.86E+00
			-20.00		185.15E+00
			-19.50		203.53E+00
			-19.00		221.62E+00
			-18.50		237.88E+00
			-18.00		253.61E+00
			-17.50		266.22E+00
			-17.00		278.02E+00
			-16.50		286.10E+00
			-16.00		293.51E+00
			-15.50		298.45E+00
			-15.00		302.87E+00
			-14.50		306.06E+00
			-14.00		309.05E+00
			-13.50		311.18E+00
			-13.00		313.11E+00
			-12.50		314.61E+00
			-12.00		316.06E+00
			-11.50		317.15E+00
			-11.00		318.15E+00
			-10.50		318.89E+00
			-10.00		319.60E+00
			-9.50		320.30E+00
			-9.00		320.97E+00
			-8.50		321.45E+00
			-8.00		321.90E+00
			-7.50		322.47E+00
			-7.00		323.01E+00
			-6.50		323.18E+00
			-6.00		323.35E+00
			-5.50		323.71E+00
			-5.00		324.09E+00
			-4.50		324.29E+00
			-4.00		324.48E+00
			-3.50		324.70E+00
			-3.00		324.90E+00
			-2.50		324.95E+00
			-2.00		324.99E+00
			-1.50		325.11E+00
			-1.00		325.24E+00
			-0.50		325.33E+00
			0.00		325.41E+00
			0.50		325.33E+00
			1.00		325.24E+00
			1.50		325.11E+00
			2.00		324.99E+00
			2.50		324.95E+00
			3.00		324.90E+00
			3.50		324.70E+00
			4.00		324.48E+00
			4.50		324.29E+00
			5.00		324.09E+00
			5.50		323.71E+00
			6.00		323.35E+00
			6.50		323.18E+00
			7.00		323.01E+00
			7.50		322.47E+00
			8.00		321.90E+00
			8.50		321.45E+00
			9.00		320.97E+00
			9.50		320.30E+00
			10.00		319.60E+00
			10.50		318.89E+00
			11.00		318.15E+00
			11.50		317.15E+00
			12.00		316.06E+00
			12.50		314.61E+00
			13.00		313.11E+00
			13.50		311.18E+00
			14.00		309.05E+00
			14.50		306.06E+00
			15.00		302.87E+00
			15.50		298.45E+00
			16.00		293.51E+00
			16.50		286.10E+00
			17.00		278.02E+00
			17.50		266.22E+00
			18.00		253.61E+00
			18.50		237.88E+00
			19.00		221.62E+00
			19.50		203.53E+00
			20.00		185.15E+00
			20.50		165.86E+00
			21.00		146.54E+00
			21.50		127.86E+00
			22.00		109.50E+00
			22.50		93.143E+00
			23.00		77.376E+00
			23.50		64.412E+00
			24.00		52.207E+00
			24.50		43.966E+00
			25.00		36.424E+00
			25.50		31.690E+00
			26.00		27.409E+00
			26.50		24.547E+00
			27.00		21.917E+00
			27.50		20.062E+00
			28.00		18.360E+00
			28.50		17.073E+00
			29.00		15.867E+00
			29.50		14.957E+00
			30.00		14.093E+00
			30.50		13.361E+00
			31.00		12.671E+00
			31.50		12.104E+00
			32.00		11.552E+00
			32.50		11.064E+00
			33.00		10.597E+00
			33.50		10.191E+00
			34.00		9.7977E+00
			34.50		9.4546E+00
			35.00		9.1164E+00
			35.50		8.8117E+00
			36.00		8.5187E+00
			36.50		8.2412E+00
			37.00		7.9619E+00
			37.50		7.7189E+00
			38.00		7.4881E+00
			38.50		7.2667E+00
			39.00		7.0470E+00
			39.50		6.8527E+00
			40.00		6.6637E+00
			40.50		6.4896E+00
			41.00		6.3168E+00
			41.50		6.1496E+00
			42.00		5.9844E+00
			42.50		5.8243E+00
			43.00		5.6679E+00
			43.50		5.5336E+00
			44.00		5.4002E+00
			44.50		5.2703E+00
			45.00		5.1432E+00
			45.50		5.0224E+00
			46.00		4.9029E+00
			46.50		4.7877E+00
			47.00		4.6752E+00
			47.50		4.5760E+00
			48.00		4.4732E+00
			48.50		4.3639E+00
			49.00		4.2606E+00
			49.50		4.1743E+00
			50.00		4.2789E+00
		END_DATA
	END_SCAN  2
	BEGIN_SCAN  3
		TASK_NAME=tba PDD Profiles
		PROGRAM=WaterTankScans
		COMMENT=Gemelli
		MEAS_DATE=08-Feb-2021 09:38:10
		LINAC=MRIdian
		MODALITY=X
		ISOCENTER=900.00
		INPLANE_AXIS=Y
		CROSSPLANE_AXIS=X
		DEPTH_AXIS=Depth
		INPLANE_AXIS_DIR=TARGET_GUN
		CROSSPLANE_AXIS_DIR=LEFT_RIGHT
		DEPTH_AXIS_DIR=UP_DOWN
		ENERGY=6.00
		NOMINAL_DMAX=15.00
		SSD=850.00
		SCD=450.00
		WEDGE_ANGLE=0.00
		FIELD_INPLANE=41.50
		FIELD_CROSSPLANE=41.50
		FIELD_TYPE=RECTANGULAR
		GANTRY=0.00
		GANTRY_UPRIGHT_POSITION=0
		GANTRY_ROTATION=CW
		COLL_ANGLE=0.00
		COLL_OFFSET_INPLANE=0.00
		COLL_OFFSET_CROSSPLANE=0.00
		SCAN_DEVICE=BeamScan
		SCAN_DEVICE_SETUP=BARA_LEFT_RIGHT
		ELECTROMETER=BeamScan
		RANGE_FIELD=LOW
		RANGE_REFERENCE=MEDIUM
		DETECTOR=THIMBLE_CHAMBER
		DETECTOR_RADIUS=2.40
		DETECTOR_NAME=A28MR
		DETECTOR_SN=-
		DETECTOR_CALIBRATION=588000000.00
		DETECTOR_IS_CALIBRATED=0
		DETECTOR_REFERENCE=THIMBLE_CHAMBER
		DETECTOR_REFERENCE_RADIUS=2.75
		DETECTOR_REFERENCE_NAME=A28MR
		DETECTOR_REFERENCE_SN=â€”
		DETECTOR_REFERENCE_IS_CALIBRATED=0
		DETECTOR_REFERENCE_CALIBRATION=303000000.00
		DETECTOR_HV=300.0
		DETECTOR_REFERENCE_HV=300.0
		DETECTOR_ORIENTATION=HORIZONTAL
		FILTER=FFF
		SCAN_SPEED_PROFILE=10.00
		SCAN_PROF_SPEED_DEP=DEPTH
		SCAN_SPEED_PDD=0.00
		SCAN_PDD_SPEED_DEP=ENERGY
		DETECTOR_TYPE=A28MR
		REF_FIELD_DEPTH=220.00
		REF_FIELD_DEFINED=ISOCENTER
		REF_FIELD_INPLANE=100.00
		REF_FIELD_CROSSPLANE=100.00
		REF_SCAN_POSITIONS=-85.00;-84.00;-83.00;-82.00;-81.00;-80.00;-79.00;-78.00;-77.00;-76.00;-75.00;-74.00;-73.00;-72.00;-71.00;-70.00;-69.00;-68.00;-67.00;-66.00;-65.00;-64.00;-63.00;-62.00;-61.00;-60.00;-59.00;-58.00;-57.00;-56.00;-55.00;-54.00;-53.00;-52.00;-51.00;-50.00;-49.00;-48.00;-47.00;-46.00;-45.00;-44.00;-43.00;-42.00;-41.00;-40.00;-39.00;-38.00;-37.00;-36.00;-35.00;-34.00;-33.00;-32.00;-31.00;-30.00;-29.00;-28.00;-27.00;-26.00;-25.00;-24.00;-23.00;-22.00;-21.00;-20.00;-19.00;-18.00;-17.00;-16.00;-15.00;-14.00;-13.00;-12.00;-11.00;-10.00;-9.00;-8.00;-7.00;-6.00;-5.00;-4.00;-3.00;-2.00;-1.00;0.00;1.00;2.00;3.00;4.00;5.00;6.00;7.00;8.00;9.00;10.00;11.00;12.00;13.00;14.00;15.00;16.00;17.00;18.00;19.00;20.00;21.00;22.00;23.00;24.00;25.00;26.00;27.00;28.00;29.00;30.00;31.00;32.00;33.00;34.00;35.00;36.00;37.00;38.00;39.00;40.00;41.00;42.00;43.00;44.00;45.00;46.00;47.00;48.00;49.00;50.00;51.00;52.00;53.00;54.00;55.00;56.00;57.00;58.00;59.00;60.00;61.00;62.00;63.00;64.00;65.00;66.00;67.00;68.00;69.00;70.00;71.00;72.00;73.00;74.00;75.00;76.00;77.00;78.00;79.00;80.00;81.00;82.00;83.00;84.00;85.00;
		REF_OVERSCAN_FACTOR=1.00
		SCAN_CURVETYPE=CROSSPLANE_PROFILE
		SCAN_DEPTH=100.00
		SCAN_OFFAXIS_INPLANE=0.00
		SCAN_OFFAXIS_CROSSPLANE=0.00
		SCAN_ANGLE=0.00
		SCAN_DIAGONAL=NOT_DIAGONAL
		SCAN_DIRECTION=POSITIVE
		MEAS_MEDIUM=WATER
		MEAS_PRESET=MEAS_CONTINUOUS_REFERENCE_SCAN
		MEAS_TIME=0.100
		MEAS_UNIT=A.U.
		INCLINATION_ANGLE=0.00
		PRESSURE=1013.25
		TEMPERATURE=20.00
		NORM_TEMPERATURE=20.00
		CORRECTION_FACTOR=1.0000
		EXPECTED_MAX_DOSE_RATE=3.00
		EPOM_DEPTH_SHIFT=0.2
		EPOM_MODE=SHIFT_PROTOCOL
		CORRECTIONS=MODIFIED_CORR;CAX_CORR;INTERPOLATED_CORR;SYMMETRY_CORR;
		BEGIN_DATA
			-50.00		5.2957E+00
			-49.50		5.1002E+00
			-49.00		5.3018E+00
			-48.50		5.4973E+00
			-48.00		5.4994E+00
			-47.50		5.5015E+00
			-47.00		5.7053E+00
			-46.50		5.9088E+00
			-46.00		6.1123E+00
			-45.50		6.3100E+00
			-45.00		6.3141E+00
			-44.50		6.3202E+00
			-44.00		6.5188E+00
			-43.50		6.7234E+00
			-43.00		6.9261E+00
			-42.50		7.1288E+00
			-42.00		7.3316E+00
			-41.50		7.5282E+00
			-41.00		7.6328E+00
			-40.50		7.7457E+00
			-40.00		7.9445E+00
			-39.50		8.1434E+00
			-39.00		8.3499E+00
			-38.50		8.5644E+00
			-38.00		8.8669E+00
			-37.50		9.1656E+00
			-37.00		9.4673E+00
			-36.50		9.7726E+00
			-36.00		9.9799E+00
			-35.50		10.186E+00
			-35.00		10.590E+00
			-34.50		10.998E+00
			-34.00		11.311E+00
			-33.50		11.615E+00
			-33.00		12.017E+00
			-32.50		12.427E+00
			-32.00		12.939E+00
			-31.50		13.459E+00
			-31.00		14.161E+00
			-30.50		14.872E+00
			-30.00		15.676E+00
			-29.50		16.490E+00
			-29.00		17.708E+00
			-28.50		18.954E+00
			-28.00		20.651E+00
			-27.50		22.375E+00
			-27.00		25.208E+00
			-26.50		28.130E+00
			-26.00		32.545E+00
			-25.50		37.041E+00
			-25.00		44.375E+00
			-24.50		51.837E+00
			-24.00		62.173E+00
			-23.50		72.674E+00
			-23.00		84.885E+00
			-22.50		97.189E+00
			-22.00		110.26E+00
			-21.50		123.34E+00
			-21.00		137.15E+00
			-20.50		151.04E+00
			-20.00		163.48E+00
			-19.50		175.82E+00
			-19.00		185.82E+00
			-18.50		195.66E+00
			-18.00		203.05E+00
			-17.50		210.33E+00
			-17.00		214.79E+00
			-16.50		219.12E+00
			-16.00		222.08E+00
			-15.50		224.98E+00
			-15.00		226.96E+00
			-14.50		228.89E+00
			-14.00		230.35E+00
			-13.50		231.77E+00
			-13.00		232.79E+00
			-12.50		233.79E+00
			-12.00		234.43E+00
			-11.50		235.05E+00
			-11.00		235.76E+00
			-10.50		236.46E+00
			-10.00		236.86E+00
			-9.50		237.27E+00
			-9.00		237.60E+00
			-8.50		237.90E+00
			-8.00		238.29E+00
