BEGIN_SCAN_DATA
	FORMAT=CC-Export V1.9                  
	FILE_CREATION_DATE=10-Mar-2022 18:55:13
	LAST_MODIFIED=10-Mar-2022 18:55:13
	BEGIN_SCAN  1
		TASK_NAME=tba PDD Profiles
		PROGRAM=WaterTankScans
		COMMENT=Mater Olbia-corrected for Ref
		MEAS_DATE=08-Feb-2021 09:38:10
		LINAC=MRIdian
		MODALITY=X
		ISOCENTER=900.00
		INPLANE_AXIS=Y
		CROSSPLANE_AXIS=X
		DEPTH_AXIS=Depth
		INPLANE_AXIS_DIR=TARGET_GUN
		CROSSPLANE_AXIS_DIR=LEFT_RIGHT
		DEPTH_AXIS_DIR=UP_DOWN
		ENERGY=6.00
		NOMINAL_DMAX=15.00
		SSD=850.00
		SCD=450.00
		WEDGE_ANGLE=0.00
		FIELD_INPLANE=99.60
		FIELD_CROSSPLANE=99.60
		FIELD_TYPE=RECTANGULAR
		GANTRY=0.00
		GANTRY_UPRIGHT_POSITION=0
		GANTRY_ROTATION=CW
		COLL_ANGLE=0.00
		COLL_OFFSET_INPLANE=0.00
		COLL_OFFSET_CROSSPLANE=0.00
		SCAN_DEVICE=BeamScan
		SCAN_DEVICE_SETUP=BARA_LEFT_RIGHT
		ELECTROMETER=BeamScan
		RANGE_FIELD=LOW
		RANGE_REFERENCE=MEDIUM
		DETECTOR=THIMBLE_CHAMBER
		DETECTOR_RADIUS=2.40
		DETECTOR_NAME=A28MR
		DETECTOR_SN=-
		DETECTOR_CALIBRATION=588000000.00
		DETECTOR_IS_CALIBRATED=0
		DETECTOR_REFERENCE=THIMBLE_CHAMBER
		DETECTOR_REFERENCE_RADIUS=2.75
		DETECTOR_REFERENCE_NAME=A28MR
		DETECTOR_REFERENCE_SN=Ã¢â‚¬â€
		DETECTOR_REFERENCE_IS_CALIBRATED=0
		DETECTOR_REFERENCE_CALIBRATION=303000000.00
		DETECTOR_HV=300.0
		DETECTOR_REFERENCE_HV=300.0
		DETECTOR_ORIENTATION=HORIZONTAL
		FILTER=FFF
		SCAN_SPEED_PROFILE=10.00
		SCAN_PROF_SPEED_DEP=DEPTH
		SCAN_SPEED_PDD=0.00
		SCAN_PDD_SPEED_DEP=ENERGY
		DETECTOR_TYPE=A28MR
		REF_FIELD_DEPTH=220.00
		REF_FIELD_DEFINED=ISOCENTER
		REF_FIELD_INPLANE=100.00
		REF_FIELD_CROSSPLANE=100.00
		REF_SCAN_POSITIONS=-85.00;-84.00;-83.00;-82.00;-81.00;-80.00;-79.00;-78.00;-77.00;-76.00;-75.00;-74.00;-73.00;-72.00;-71.00;-70.00;-69.00;-68.00;-67.00;-66.00;-65.00;-64.00;-63.00;-62.00;-61.00;-60.00;-59.00;-58.00;-57.00;-56.00;-55.00;-54.00;-53.00;-52.00;-51.00;-50.00;-49.00;-48.00;-47.00;-46.00;-45.00;-44.00;-43.00;-42.00;-41.00;-40.00;-39.00;-38.00;-37.00;-36.00;-35.00;-34.00;-33.00;-32.00;-31.00;-30.00;-29.00;-28.00;-27.00;-26.00;-25.00;-24.00;-23.00;-22.00;-21.00;-20.00;-19.00;-18.00;-17.00;-16.00;-15.00;-14.00;-13.00;-12.00;-11.00;-10.00;-9.00;-8.00;-7.00;-6.00;-5.00;-4.00;-3.00;-2.00;-1.00;0.00;1.00;2.00;3.00;4.00;5.00;6.00;7.00;8.00;9.00;10.00;11.00;12.00;13.00;14.00;15.00;16.00;17.00;18.00;19.00;20.00;21.00;22.00;23.00;24.00;25.00;26.00;27.00;28.00;29.00;30.00;31.00;32.00;33.00;34.00;35.00;36.00;37.00;38.00;39.00;40.00;41.00;42.00;43.00;44.00;45.00;46.00;47.00;48.00;49.00;50.00;51.00;52.00;53.00;54.00;55.00;56.00;57.00;58.00;59.00;60.00;61.00;62.00;63.00;64.00;65.00;66.00;67.00;68.00;69.00;70.00;71.00;72.00;73.00;74.00;75.00;76.00;77.00;78.00;79.00;80.00;81.00;82.00;83.00;84.00;85.00;
		REF_OVERSCAN_FACTOR=1.00
		SCAN_CURVETYPE=CROSSPLANE_PROFILE
		SCAN_DEPTH=20.00
		SCAN_OFFAXIS_INPLANE=0.00
		SCAN_OFFAXIS_CROSSPLANE=0.00
		SCAN_ANGLE=0.00
		SCAN_DIAGONAL=NOT_DIAGONAL
		SCAN_DIRECTION=POSITIVE
		MEAS_MEDIUM=WATER
		MEAS_PRESET=MEAS_CONTINUOUS_REFERENCE_SCAN
		MEAS_TIME=0.100
		MEAS_UNIT=A.U.
		INCLINATION_ANGLE=0.00
		PRESSURE=1013.25
		TEMPERATURE=20.00
		NORM_TEMPERATURE=20.00
		CORRECTION_FACTOR=1.0000
		EXPECTED_MAX_DOSE_RATE=3.00
		EPOM_DEPTH_SHIFT=0.2
		EPOM_MODE=SHIFT_PROTOCOL
		CORRECTIONS=CAX_CORR;INTERPOLATED_CORR;SYMMETRY_CORR;
		BEGIN_DATA
			-80.00		7.4287E+00
			-79.50		7.4276E+00
			-79.00		7.5480E+00
			-78.50		7.6787E+00
			-78.00		7.8093E+00
			-77.50		7.9068E+00
			-77.00		8.0051E+00
			-76.50		8.1420E+00
			-76.00		8.2769E+00
			-75.50		8.3692E+00
			-75.00		8.4643E+00
			-74.50		8.5735E+00
			-74.00		8.6823E+00
			-73.50		8.8650E+00
			-73.00		9.0489E+00
			-72.50		9.1618E+00
			-72.00		9.2707E+00
			-71.50		9.4592E+00
			-71.00		9.6519E+00
			-70.50		9.7943E+00
			-70.00		9.9354E+00
			-69.50		10.188E+00
			-69.00		10.446E+00
			-68.50		10.575E+00
			-68.00		10.705E+00
			-67.50		10.929E+00
			-67.00		11.158E+00
			-66.50		11.432E+00
			-66.00		11.705E+00
			-65.50		11.910E+00
			-65.00		12.118E+00
			-64.50		12.433E+00
			-64.00		12.752E+00
			-63.50		13.083E+00
			-63.00		13.415E+00
			-62.50		13.763E+00
			-62.00		14.114E+00
			-61.50		14.531E+00
			-61.00		14.948E+00
			-60.50		15.375E+00
			-60.00		15.812E+00
			-59.50		16.382E+00
			-59.00		16.954E+00
			-58.50		17.628E+00
			-58.00		18.318E+00
			-57.50		19.159E+00
			-57.00		20.010E+00
			-56.50		21.098E+00
			-56.00		22.215E+00
			-55.50		23.710E+00
			-55.00		25.241E+00
			-54.50		27.504E+00
			-54.00		29.872E+00
			-53.50		33.699E+00
			-53.00		37.756E+00
			-52.50		44.765E+00
			-52.00		51.981E+00
			-51.50		63.227E+00
			-51.00		74.841E+00
			-50.50		91.412E+00
			-50.00		108.32E+00
			-49.50		128.43E+00
			-49.00		148.72E+00
			-48.50		171.70E+00
			-48.00		194.76E+00
			-47.50		218.01E+00
			-47.00		241.24E+00
			-46.50		262.77E+00
			-46.00		284.05E+00
			-45.50		301.61E+00
			-45.00		318.96E+00
			-44.50		331.97E+00
			-44.00		344.74E+00
			-43.50		353.51E+00
			-43.00		361.89E+00
			-42.50		367.19E+00
			-42.00		372.36E+00
			-41.50		376.48E+00
			-41.00		380.50E+00
			-40.50		383.15E+00
			-40.00		385.68E+00
			-39.50		387.45E+00
			-39.00		389.22E+00
			-38.50		391.41E+00
			-38.00		393.58E+00
			-37.50		395.01E+00
			-37.00		396.43E+00
			-36.50		397.85E+00
			-36.00		399.23E+00
			-35.50		400.56E+00
			-35.00		401.88E+00
			-34.50		403.00E+00
			-34.00		404.15E+00
			-33.50		405.31E+00
			-33.00		406.40E+00
			-32.50		407.19E+00
			-32.00		408.01E+00
			-31.50		408.77E+00
			-31.00		409.52E+00
			-30.50		410.52E+00
			-30.00		411.51E+00
			-29.50		412.41E+00
			-29.00		413.37E+00
			-28.50		414.42E+00
			-28.00		415.42E+00
			-27.50		415.71E+00
			-27.00		415.99E+00
			-26.50		417.30E+00
			-26.00		418.67E+00
			-25.50		419.23E+00
			-25.00		419.77E+00
			-24.50		420.52E+00
			-24.00		421.27E+00
			-23.50		422.04E+00
			-23.00		422.79E+00
			-22.50		423.14E+00
			-22.00		423.48E+00
			-21.50		424.70E+00
			-21.00		425.91E+00
			-20.50		426.25E+00
			-20.00		426.59E+00
			-19.50		427.34E+00
			-19.00		428.10E+00
			-18.50		428.96E+00
			-18.00		429.84E+00
			-17.50		430.19E+00
			-17.00		430.52E+00
			-16.50		430.85E+00
			-16.00		431.19E+00
			-15.50		431.84E+00
			-15.00		432.48E+00
			-14.50		432.85E+00
			-14.00		433.23E+00
			-13.50		433.74E+00
			-13.00		434.26E+00
			-12.50		434.17E+00
			-12.00		434.07E+00
			-11.50		434.84E+00
			-11.00		435.66E+00
			-10.50		435.98E+00
			-10.00		436.29E+00
			-9.50		437.10E+00
			-9.00		437.89E+00
			-8.50		437.80E+00
			-8.00		437.69E+00
			-7.50		437.96E+00
			-7.00		438.27E+00
			-6.50		438.43E+00
			-6.00		438.57E+00
			-5.50		439.03E+00
			-5.00		439.47E+00
			-4.50		439.38E+00
			-4.00		439.27E+00
			-3.50		439.73E+00
			-3.00		440.18E+00
			-2.50		439.91E+00
			-2.00		439.69E+00
			-1.50		439.66E+00
			-1.00		439.57E+00
			-0.50		439.65E+00
			0.00		439.74E+00
			0.50		439.65E+00
			1.00		439.57E+00
			1.50		439.66E+00
			2.00		439.69E+00
			2.50		439.91E+00
			3.00		440.18E+00
			3.50		439.73E+00
			4.00		439.27E+00
			4.50		439.38E+00
			5.00		439.47E+00
			5.50		439.03E+00
			6.00		438.57E+00
			6.50		438.43E+00
			7.00		438.27E+00
			7.50		437.96E+00
			8.00		437.69E+00
			8.50		437.80E+00
			9.00		437.89E+00
			9.50		437.10E+00
			10.00		436.29E+00
			10.50		435.98E+00
			11.00		435.66E+00
			11.50		434.84E+00
			12.00		434.07E+00
			12.50		434.17E+00
			13.00		434.26E+00
			13.50		433.74E+00
			14.00		433.23E+00
			14.50		432.85E+00
			15.00		432.48E+00
			15.50		431.84E+00
			16.00		431.19E+00
			16.50		430.85E+00
			17.00		430.52E+00
			17.50		430.19E+00
			18.00		429.84E+00
			18.50		428.96E+00
			19.00		428.10E+00
			19.50		427.34E+00
			20.00		426.59E+00
			20.50		426.25E+00
			21.00		425.91E+00
			21.50		424.70E+00
			22.00		423.48E+00
			22.50		423.14E+00
			23.00		422.79E+00
			23.50		422.04E+00
			24.00		421.27E+00
			24.50		420.52E+00
			25.00		419.77E+00
			25.50		419.23E+00
			26.00		418.67E+00
			26.50		417.30E+00
			27.00		415.99E+00
			27.50		415.71E+00
			28.00		415.42E+00
			28.50		414.42E+00
			29.00		413.37E+00
			29.50		412.41E+00
			30.00		411.51E+00
			30.50		410.52E+00
			31.00		409.52E+00
			31.50		408.77E+00
			32.00		408.01E+00
			32.50		407.19E+00
			33.00		406.40E+00
			33.50		405.31E+00
			34.00		404.15E+00
			34.50		403.00E+00
			35.00		401.88E+00
			35.50		400.56E+00
			36.00		399.23E+00
			36.50		397.85E+00
			37.00		396.43E+00
			37.50		395.01E+00
			38.00		393.58E+00
			38.50		391.41E+00
			39.00		389.22E+00
			39.50		387.45E+00
			40.00		385.68E+00
			40.50		383.15E+00
			41.00		380.50E+00
			41.50		376.48E+00
			42.00		372.36E+00
			42.50		367.19E+00
			43.00		361.89E+00
			43.50		353.51E+00
			44.00		344.74E+00
			44.50		331.97E+00
			45.00		318.96E+00
			45.50		301.61E+00
			46.00		284.05E+00
			46.50		262.77E+00
			47.00		241.24E+00
			47.50		218.01E+00
			48.00		194.76E+00
			48.50		171.70E+00
			49.00		148.72E+00
			49.50		128.43E+00
			50.00		108.32E+00
			50.50		91.412E+00
			51.00		74.841E+00
			51.50		63.227E+00
			52.00		51.981E+00
			52.50		44.765E+00
			53.00		37.756E+00
			53.50		33.699E+00
			54.00		29.872E+00
			54.50		27.504E+00
			55.00		25.241E+00
			55.50		23.710E+00
			56.00		22.215E+00
			56.50		21.098E+00
			57.00		20.010E+00
			57.50		19.159E+00
			58.00		18.318E+00
			58.50		17.628E+00
			59.00		16.954E+00
			59.50		16.382E+00
			60.00		15.812E+00
			60.50		15.375E+00
			61.00		14.948E+00
			61.50		14.531E+00
			62.00		14.114E+00
			62.50		13.763E+00
			63.00		13.415E+00
			63.50		13.083E+00
			64.00		12.752E+00
			64.50		12.433E+00
			65.00		12.118E+00
			65.50		11.910E+00
			66.00		11.705E+00
			66.50		11.432E+00
			67.00		11.158E+00
			67.50		10.929E+00
			68.00		10.705E+00
			68.50		10.575E+00
			69.00		10.446E+00
			69.50		10.188E+00
			70.00		9.9354E+00
			70.50		9.7943E+00
			71.00		9.6519E+00
			71.50		9.4592E+00
			72.00		9.2707E+00
			72.50		9.1618E+00
			73.00		9.0489E+00
			73.50		8.8650E+00
			74.00		8.6823E+00
			74.50		8.5735E+00
			75.00		8.4643E+00
			75.50		8.3692E+00
			76.00		8.2769E+00
			76.50		8.1420E+00
			77.00		8.0051E+00
			77.50		7.9068E+00
			78.00		7.8093E+00
			78.50		7.6787E+00
			79.00		7.5480E+00
			79.50		7.4276E+00
			80.00		7.4287E+00
		END_DATA
	END_SCAN  1
	BEGIN_SCAN  2
		TASK_NAME=tba PDD Profiles
		PROGRAM=WaterTankScans
		COMMENT=Mater Olbia
		MEAS_DATE=10-Mar-2022 18:52:04
		LINAC=MRIdian
		MODALITY=X
		ISOCENTER=900.00
		INPLANE_AXIS=Y
		CROSSPLANE_AXIS=X
		DEPTH_AXIS=Depth
		INPLANE_AXIS_DIR=TARGET_GUN
		CROSSPLANE_AXIS_DIR=LEFT_RIGHT
		DEPTH_AXIS_DIR=UP_DOWN
		ENERGY=6.00
		NOMINAL_DMAX=15.00
		SSD=850.00
		SCD=450.00
		WEDGE_ANGLE=0.00
		FIELD_INPLANE=99.60
		FIELD_CROSSPLANE=99.60
		FIELD_TYPE=RECTANGULAR
		GANTRY=0.00
		GANTRY_UPRIGHT_POSITION=0
		GANTRY_ROTATION=CW
		COLL_ANGLE=0.00
		COLL_OFFSET_INPLANE=0.00
		COLL_OFFSET_CROSSPLANE=0.00
		SCAN_DEVICE=BeamScan
		SCAN_DEVICE_SETUP=BARA_LEFT_RIGHT
		ELECTROMETER=BeamScan
		RANGE_FIELD=LOW
		RANGE_REFERENCE=MEDIUM
		DETECTOR=THIMBLE_CHAMBER
		DETECTOR_RADIUS=2.40
		DETECTOR_NAME=A28MR
		DETECTOR_SN=-
		DETECTOR_CALIBRATION=588000000.00
		DETECTOR_IS_CALIBRATED=0
		DETECTOR_REFERENCE=THIMBLE_CHAMBER
		DETECTOR_REFERENCE_RADIUS=2.75
		DETECTOR_REFERENCE_NAME=A28MR
		DETECTOR_REFERENCE_SN=Ã¢â‚¬â€
		DETECTOR_REFERENCE_IS_CALIBRATED=0
		DETECTOR_REFERENCE_CALIBRATION=303000000.00
		DETECTOR_HV=300.0
		DETECTOR_REFERENCE_HV=300.0
		DETECTOR_ORIENTATION=HORIZONTAL
		FILTER=FFF
		SCAN_SPEED_PROFILE=10.00
		SCAN_PROF_SPEED_DEP=DEPTH
		SCAN_SPEED_PDD=0.00
		SCAN_PDD_SPEED_DEP=ENERGY
		DETECTOR_TYPE=A28MR
		REF_FIELD_DEPTH=220.00
		REF_FIELD_DEFINED=ISOCENTER
		REF_FIELD_INPLANE=100.00
		REF_FIELD_CROSSPLANE=100.00
		REF_SCAN_POSITIONS=-85.00;-84.00;-83.00;-82.00;-81.00;-80.00;-79.00;-78.00;-77.00;-76.00;-75.00;-74.00;-73.00;-72.00;-71.00;-70.00;-69.00;-68.00;-67.00;-66.00;-65.00;-64.00;-63.00;-62.00;-61.00;-60.00;-59.00;-58.00;-57.00;-56.00;-55.00;-54.00;-53.00;-52.00;-51.00;-50.00;-49.00;-48.00;-47.00;-46.00;-45.00;-44.00;-43.00;-42.00;-41.00;-40.00;-39.00;-38.00;-37.00;-36.00;-35.00;-34.00;-33.00;-32.00;-31.00;-30.00;-29.00;-28.00;-27.00;-26.00;-25.00;-24.00;-23.00;-22.00;-21.00;-20.00;-19.00;-18.00;-17.00;-16.00;-15.00;-14.00;-13.00;-12.00;-11.00;-10.00;-9.00;-8.00;-7.00;-6.00;-5.00;-4.00;-3.00;-2.00;-1.00;0.00;1.00;2.00;3.00;4.00;5.00;6.00;7.00;8.00;9.00;10.00;11.00;12.00;13.00;14.00;15.00;16.00;17.00;18.00;19.00;20.00;21.00;22.00;23.00;24.00;25.00;26.00;27.00;28.00;29.00;30.00;31.00;32.00;33.00;34.00;35.00;36.00;37.00;38.00;39.00;40.00;41.00;42.00;43.00;44.00;45.00;46.00;47.00;48.00;49.00;50.00;51.00;52.00;53.00;54.00;55.00;56.00;57.00;58.00;59.00;60.00;61.00;62.00;63.00;64.00;65.00;66.00;67.00;68.00;69.00;70.00;71.00;72.00;73.00;74.00;75.00;76.00;77.00;78.00;79.00;80.00;81.00;82.00;83.00;84.00;85.00;
		REF_OVERSCAN_FACTOR=1.00
		SCAN_CURVETYPE=CROSSPLANE_PROFILE
		SCAN_DEPTH=55.00
		SCAN_OFFAXIS_INPLANE=0.00
		SCAN_OFFAXIS_CROSSPLANE=0.00
		SCAN_ANGLE=0.00
		SCAN_DIAGONAL=NOT_DIAGONAL
		SCAN_DIRECTION=POSITIVE
		MEAS_MEDIUM=WATER
		MEAS_PRESET=MEAS_CONTINUOUS_REFERENCE_SCAN
		MEAS_TIME=0.100
		MEAS_UNIT=A.U.
		INCLINATION_ANGLE=0.00
		PRESSURE=1013.25
		TEMPERATURE=20.00
		NORM_TEMPERATURE=20.00
		CORRECTION_FACTOR=1.0000
		EXPECTED_MAX_DOSE_RATE=3.00
		EPOM_DEPTH_SHIFT=0.2
		EPOM_MODE=SHIFT_PROTOCOL
		CORRECTIONS=SSD_CORR;CAX_CORR;ADD_CURVES_CORR;MODIFIED_CORR;INTERPOLATED_CORR;SYMMETRY_CORR;
		BEGIN_DATA
			-80.00		11.193E+00
			-79.50		11.241E+00
			-79.00		11.393E+00
			-78.50		11.621E+00
			-78.00		11.793E+00
			-77.50		11.993E+00
			-77.00		12.193E+00
			-76.50		12.370E+00
			-76.00		12.622E+00
			-75.50		12.884E+00
			-75.00		13.017E+00
			-74.50		13.253E+00
			-74.00		13.420E+00
			-73.50		13.630E+00
			-73.00		13.935E+00
			-72.50		14.115E+00
			-72.00		14.497E+00
			-71.50		14.802E+00
			-71.00		14.991E+00
			-70.50		15.184E+00
			-70.00		15.486E+00
			-69.50		15.839E+00
			-69.00		16.214E+00
			-68.50		16.621E+00
			-68.00		16.938E+00
			-67.50		17.265E+00
			-67.00		17.790E+00
			-66.50		18.128E+00
			-66.00		18.572E+00
			-65.50		19.033E+00
			-65.00		19.392E+00
			-64.50		19.797E+00
			-64.00		20.382E+00
			-63.50		20.884E+00
			-63.00		21.231E+00
			-62.50		21.922E+00
			-62.00		22.560E+00
			-61.50		23.246E+00
			-61.00		23.966E+00
			-60.50		24.810E+00
			-60.00		25.591E+00
			-59.50		26.563E+00
			-59.00		27.601E+00
			-58.50		28.896E+00
			-58.00		30.141E+00
			-57.50		31.741E+00
			-57.00		33.452E+00
			-56.50		35.692E+00
			-56.00		38.309E+00
			-55.50		42.079E+00
			-55.00		46.217E+00
			-54.50		52.022E+00
			-54.00		59.141E+00
			-53.50		68.066E+00
			-53.00		79.127E+00
			-52.50		92.095E+00
			-52.00		106.53E+00
			-51.50		122.18E+00
			-51.00		139.73E+00
			-50.50		157.86E+00
			-50.00		176.51E+00
			-49.50		195.35E+00
			-49.00		214.19E+00
			-48.50		232.33E+00
			-48.00		249.63E+00
			-47.50		265.26E+00
			-47.00		279.98E+00
			-46.50		292.11E+00
			-46.00		303.61E+00
			-45.50		311.89E+00
			-45.00		319.80E+00
			-44.50		325.11E+00
			-44.00		330.18E+00
			-43.50		334.33E+00
			-43.00		338.08E+00
			-42.50		340.84E+00
			-42.00		343.52E+00
			-41.50		345.80E+00
			-41.00		347.97E+00
			-40.50		349.85E+00
			-40.00		351.48E+00
			-39.50		352.95E+00
			-39.00		354.38E+00
			-38.50		355.86E+00
			-38.00		357.36E+00
			-37.50		358.70E+00
			-37.00		359.93E+00
			-36.50		360.84E+00
			-36.00		361.85E+00
			-35.50		362.97E+00
			-35.00		363.99E+00
			-34.50		365.15E+00
			-34.00		366.33E+00
			-33.50		367.40E+00
			-33.00		368.40E+00
			-32.50		369.49E+00
			-32.00		370.36E+00
			-31.50		371.19E+00
			-31.00		372.26E+00
			-30.50		373.15E+00
			-30.00		373.93E+00
			-29.50		374.67E+00
			-29.00		375.53E+00
			-28.50		376.33E+00
			-28.00		377.16E+00
			-27.50		378.03E+00
			-27.00		378.92E+00
			-26.50		379.60E+00
			-26.00		380.02E+00
			-25.50		380.53E+00
			-25.00		381.34E+00
			-24.50		382.17E+00
			-24.00		382.80E+00
			-23.50		383.48E+00
			-23.00		384.43E+00
			-22.50		385.07E+00
			-22.00		385.43E+00
			-21.50		385.84E+00
			-21.00		386.36E+00
			-20.50		387.34E+00
			-20.00		388.26E+00
			-19.50		388.65E+00
			-19.00		388.96E+00
			-18.50		389.65E+00
			-18.00		390.23E+00
			-17.50		390.63E+00
			-17.00		390.93E+00
			-16.50		391.33E+00
			-16.00		391.92E+00
			-15.50		392.39E+00
			-15.00		392.94E+00
			-14.50		393.45E+00
			-14.00		393.71E+00
			-13.50		393.97E+00
			-13.00		394.20E+00
			-12.50		394.54E+00
			-12.00		395.01E+00
			-11.50		395.60E+00
			-11.00		395.79E+00
			-10.50		396.20E+00
			-10.00		396.52E+00
			-9.50		396.80E+00
			-9.00		397.01E+00
			-8.50		397.42E+00
			-8.00		397.78E+00
			-7.50		397.97E+00
			-7.00		398.16E+00
			-6.50		398.24E+00
			-6.00		398.48E+00
			-5.50		398.89E+00
			-5.00		398.98E+00
			-4.50		399.03E+00
			-4.00		399.06E+00
			-3.50		399.04E+00
			-3.00		399.16E+00
			-2.50		399.43E+00
			-2.00		399.64E+00
			-1.50		399.76E+00
			-1.00		399.77E+00
			-0.50		399.95E+00
			0.00		399.84E+00
			0.50		399.95E+00
			1.00		399.77E+00
			1.50		399.76E+00
			2.00		399.64E+00
			2.50		399.43E+00
			3.00		399.16E+00
			3.50		399.04E+00
			4.00		399.06E+00
			4.50		399.03E+00
			5.00		398.98E+00
			5.50		398.89E+00
			6.00		398.48E+00
			6.50		398.24E+00
			7.00		398.16E+00
			7.50		397.97E+00
			8.00		397.78E+00
			8.50		397.42E+00
			9.00		397.01E+00
			9.50		396.80E+00
			10.00		396.52E+00
			10.50		396.20E+00
			11.00		395.79E+00
			11.50		395.60E+00
			12.00		395.01E+00
			12.50		394.54E+00
			13.00		394.20E+00
			13.50		393.97E+00
			14.00		393.71E+00
			14.50		393.45E+00
			15.00		392.94E+00
			15.50		392.39E+00
			16.00		391.92E+00
			16.50		391.33E+00
			17.00		390.93E+00
			17.50		390.63E+00
			18.00		390.23E+00
			18.50		389.65E+00
			19.00		388.96E+00
			19.50		388.65E+00
			20.00		388.26E+00
			20.50		387.34E+00
			21.00		386.36E+00
			21.50		385.84E+00
			22.00		385.43E+00
			22.50		385.07E+00
			23.00		384.43E+00
			23.50		383.48E+00
			24.00		382.80E+00
			24.50		382.17E+00
			25.00		381.34E+00
			25.50		380.53E+00
			26.00		380.02E+00
			26.50		379.60E+00
			27.00		378.92E+00
			27.50		378.03E+00
			28.00		377.16E+00
			28.50		376.33E+00
			29.00		375.53E+00
			29.50		374.67E+00
			30.00		373.93E+00
			30.50		373.15E+00
			31.00		372.26E+00
			31.50		371.19E+00
			32.00		370.36E+00
			32.50		369.49E+00
			33.00		368.40E+00
			33.50		367.40E+00
			34.00		366.33E+00
			34.50		365.15E+00
			35.00		363.99E+00
			35.50		362.97E+00
			36.00		361.85E+00
			36.50		360.84E+00
			37.00		359.93E+00
			37.50		358.70E+00
			38.00		357.36E+00
			38.50		355.86E+00
			39.00		354.38E+00
			39.50		352.95E+00
			40.00		351.48E+00
			40.50		349.85E+00
			41.00		347.97E+00
			41.50		345.80E+00
			42.00		343.52E+00
			42.50		340.84E+00
			43.00		338.08E+00
			43.50		334.33E+00
			44.00		330.18E+00
			44.50		325.11E+00
			45.00		319.80E+00
			45.50		311.89E+00
			46.00		303.61E+00
			46.50		292.11E+00
			47.00		279.98E+00
			47.50		265.26E+00
			48.00		249.63E+00
			48.50		232.33E+00
			49.00		214.19E+00
			49.50		195.35E+00
			50.00		176.51E+00
			50.50		157.86E+00
			51.00		139.73E+00
			51.50		122.18E+00
			52.00		106.53E+00
			52.50		92.095E+00
			53.00		79.127E+00
			53.50		68.066E+00
			54.00		59.141E+00
			54.50		52.022E+00
			55.00		46.217E+00
			55.50		42.079E+00
			56.00		38.309E+00
			56.50		35.692E+00
			57.00		33.452E+00
			57.50		31.741E+00
			58.00		30.141E+00
			58.50		28.896E+00
			59.00		27.601E+00
			59.50		26.563E+00
			60.00		25.591E+00
			60.50		24.810E+00
			61.00		23.966E+00
			61.50		23.246E+00
			62.00		22.560E+00
			62.50		21.922E+00
			63.00		21.231E+00
			63.50		20.884E+00
			64.00		20.382E+00
			64.50		19.797E+00
			65.00		19.392E+00
			65.50		19.033E+00
			66.00		18.572E+00
			66.50		18.128E+00
			67.00		17.790E+00
			67.50		17.265E+00
			68.00		16.938E+00
			68.50		16.621E+00
			69.00		16.214E+00
			69.50		15.839E+00
			70.00		15.486E+00
			70.50		15.184E+00
			71.00		14.991E+00
			71.50		14.802E+00
			72.00		14.497E+00
			72.50		14.115E+00
			73.00		13.935E+00
			73.50		13.630E+00
			74.00		13.420E+00
			74.50		13.253E+00
			75.00		13.017E+00
