BEGIN_SCAN_DATA
	FORMAT=CC-Export V1.9                  
	FILE_CREATION_DATE=11-Mar-2022 18:02:43
	LAST_MODIFIED=11-Mar-2022 18:02:43
	BEGIN_SCAN  1
		TASK_NAME=tba PDD Profiles
		PROGRAM=WaterTankScans
		COMMENT=FBF_SanPietro
		MEAS_DATE=08-Feb-2021 09:38:10
		LINAC=MRIdian
		MODALITY=X
		ISOCENTER=900.00
		INPLANE_AXIS=Y
		CROSSPLANE_AXIS=X
		DEPTH_AXIS=Depth
		INPLANE_AXIS_DIR=TARGET_GUN
		CROSSPLANE_AXIS_DIR=LEFT_RIGHT
		DEPTH_AXIS_DIR=UP_DOWN
		ENERGY=6.00
		NOMINAL_DMAX=15.00
		SSD=850.00
		SCD=450.00
		WEDGE_ANGLE=0.00
		FIELD_INPLANE=99.60
		FIELD_CROSSPLANE=99.60
		FIELD_TYPE=RECTANGULAR
		GANTRY=0.00
		GANTRY_UPRIGHT_POSITION=0
		GANTRY_ROTATION=CW
		COLL_ANGLE=0.00
		COLL_OFFSET_INPLANE=0.00
		COLL_OFFSET_CROSSPLANE=0.00
		SCAN_DEVICE=BeamScan
		SCAN_DEVICE_SETUP=BARA_LEFT_RIGHT
		ELECTROMETER=BeamScan
		RANGE_FIELD=LOW
		RANGE_REFERENCE=MEDIUM
		DETECTOR=THIMBLE_CHAMBER
		DETECTOR_RADIUS=2.40
		DETECTOR_NAME=A28MR
		DETECTOR_SN=-
		DETECTOR_CALIBRATION=588000000.00
		DETECTOR_IS_CALIBRATED=0
		DETECTOR_REFERENCE=THIMBLE_CHAMBER
		DETECTOR_REFERENCE_RADIUS=2.75
		DETECTOR_REFERENCE_NAME=A28MR
		DETECTOR_REFERENCE_SN=â€”
		DETECTOR_REFERENCE_IS_CALIBRATED=0
		DETECTOR_REFERENCE_CALIBRATION=303000000.00
		DETECTOR_HV=300.0
		DETECTOR_REFERENCE_HV=300.0
		DETECTOR_ORIENTATION=HORIZONTAL
		FILTER=FFF
		SCAN_SPEED_PROFILE=10.00
		SCAN_PROF_SPEED_DEP=DEPTH
		SCAN_SPEED_PDD=0.00
		SCAN_PDD_SPEED_DEP=ENERGY
		DETECTOR_TYPE=A28MR
		REF_FIELD_DEPTH=220.00
		REF_FIELD_DEFINED=ISOCENTER
		REF_FIELD_INPLANE=100.00
		REF_FIELD_CROSSPLANE=100.00
		REF_SCAN_POSITIONS=-85.00;-84.00;-83.00;-82.00;-81.00;-80.00;-79.00;-78.00;-77.00;-76.00;-75.00;-74.00;-73.00;-72.00;-71.00;-70.00;-69.00;-68.00;-67.00;-66.00;-65.00;-64.00;-63.00;-62.00;-61.00;-60.00;-59.00;-58.00;-57.00;-56.00;-55.00;-54.00;-53.00;-52.00;-51.00;-50.00;-49.00;-48.00;-47.00;-46.00;-45.00;-44.00;-43.00;-42.00;-41.00;-40.00;-39.00;-38.00;-37.00;-36.00;-35.00;-34.00;-33.00;-32.00;-31.00;-30.00;-29.00;-28.00;-27.00;-26.00;-25.00;-24.00;-23.00;-22.00;-21.00;-20.00;-19.00;-18.00;-17.00;-16.00;-15.00;-14.00;-13.00;-12.00;-11.00;-10.00;-9.00;-8.00;-7.00;-6.00;-5.00;-4.00;-3.00;-2.00;-1.00;0.00;1.00;2.00;3.00;4.00;5.00;6.00;7.00;8.00;9.00;10.00;11.00;12.00;13.00;14.00;15.00;16.00;17.00;18.00;19.00;20.00;21.00;22.00;23.00;24.00;25.00;26.00;27.00;28.00;29.00;30.00;31.00;32.00;33.00;34.00;35.00;36.00;37.00;38.00;39.00;40.00;41.00;42.00;43.00;44.00;45.00;46.00;47.00;48.00;49.00;50.00;51.00;52.00;53.00;54.00;55.00;56.00;57.00;58.00;59.00;60.00;61.00;62.00;63.00;64.00;65.00;66.00;67.00;68.00;69.00;70.00;71.00;72.00;73.00;74.00;75.00;76.00;77.00;78.00;79.00;80.00;81.00;82.00;83.00;84.00;85.00;
		REF_OVERSCAN_FACTOR=1.00
		SCAN_CURVETYPE=CROSSPLANE_PROFILE
		SCAN_DEPTH=20.00
		SCAN_OFFAXIS_INPLANE=0.00
		SCAN_OFFAXIS_CROSSPLANE=0.00
		SCAN_ANGLE=0.00
		SCAN_DIAGONAL=NOT_DIAGONAL
		SCAN_DIRECTION=POSITIVE
		MEAS_MEDIUM=WATER
		MEAS_PRESET=MEAS_CONTINUOUS_REFERENCE_SCAN
		MEAS_TIME=0.100
		MEAS_UNIT=A.U.
		INCLINATION_ANGLE=0.00
		PRESSURE=1013.25
		TEMPERATURE=20.00
		NORM_TEMPERATURE=20.00
		CORRECTION_FACTOR=1.0000
		EXPECTED_MAX_DOSE_RATE=3.00
		EPOM_DEPTH_SHIFT=0.2
		EPOM_MODE=SHIFT_PROTOCOL
		CORRECTIONS=CAX_CORR;INTERPOLATED_CORR;SYMMETRY_CORR;
		BEGIN_DATA
			-90.00		6.0207E+00
			-89.50		6.0700E+00
			-89.00		6.1698E+00
			-88.50		6.2277E+00
			-88.00		6.2724E+00
			-87.50		6.3547E+00
			-87.00		6.4511E+00
			-86.50		6.5441E+00
			-86.00		6.6206E+00
			-85.50		6.6735E+00
			-85.00		6.7361E+00
			-84.50		6.8211E+00
			-84.00		6.9170E+00
			-83.50		7.0216E+00
			-83.00		7.1108E+00
			-82.50		7.2023E+00
			-82.00		7.3052E+00
			-81.50		7.4272E+00
			-81.00		7.5569E+00
			-80.50		7.6498E+00
			-80.00		7.7295E+00
			-79.50		7.8245E+00
			-79.00		7.9194E+00
			-78.50		8.0506E+00
			-78.00		8.1923E+00
			-77.50		8.2680E+00
			-77.00		8.3330E+00
			-76.50		8.4712E+00
			-76.00		8.6326E+00
			-75.50		8.7881E+00
			-75.00		8.9235E+00
			-74.50		9.0331E+00
			-74.00		9.1485E+00
			-73.50		9.3235E+00
			-73.00		9.5088E+00
			-72.50		9.6604E+00
			-72.00		9.8142E+00
			-71.50		10.041E+00
			-71.00		10.265E+00
			-70.50		10.410E+00
			-70.00		10.549E+00
			-69.50		10.755E+00
			-69.00		10.969E+00
			-68.50		11.160E+00
			-68.00		11.355E+00
			-67.50		11.576E+00
			-67.00		11.805E+00
			-66.50		12.040E+00
			-66.00		12.278E+00
			-65.50		12.547E+00
			-65.00		12.826E+00
			-64.50		13.115E+00
			-64.00		13.410E+00
			-63.50		13.721E+00
			-63.00		14.055E+00
			-62.50		14.423E+00
			-62.00		14.781E+00
			-61.50		15.225E+00
			-61.00		15.717E+00
			-60.50		16.242E+00
			-60.00		16.785E+00
			-59.50		17.328E+00
			-59.00		17.869E+00
			-58.50		18.573E+00
			-58.00		19.334E+00
			-57.50		20.207E+00
			-57.00		21.152E+00
			-56.50		22.314E+00
			-56.00		23.566E+00
			-55.50		25.107E+00
			-55.00		26.791E+00
			-54.50		29.001E+00
			-54.00		31.568E+00
			-53.50		35.307E+00
			-53.00		39.780E+00
			-52.50		46.544E+00
			-52.00		54.396E+00
			-51.50		66.068E+00
			-51.00		79.133E+00
			-50.50		96.479E+00
			-50.00		115.30E+00
			-49.50		136.96E+00
			-49.00		159.65E+00
			-48.50		184.61E+00
			-48.00		209.88E+00
			-47.50		235.19E+00
			-47.00		260.40E+00
			-46.50		284.26E+00
			-46.00		307.23E+00
			-45.50		327.54E+00
			-45.00		346.61E+00
			-44.50		361.83E+00
			-44.00		375.92E+00
			-43.50		385.84E+00
			-43.00		394.49E+00
			-42.50		400.83E+00
			-42.00		406.43E+00
			-41.50		410.62E+00
			-41.00		414.37E+00
			-40.50		417.41E+00
			-40.00		420.18E+00
			-39.50		422.23E+00
			-39.00		424.17E+00
			-38.50		426.19E+00
			-38.00		428.10E+00
			-37.50		429.54E+00
			-37.00		430.86E+00
			-36.50		432.29E+00
			-36.00		433.84E+00
			-35.50		435.36E+00
			-35.00		436.77E+00
			-34.50		438.07E+00
			-34.00		439.29E+00
			-33.50		440.22E+00
			-33.00		441.22E+00
			-32.50		442.52E+00
			-32.00		443.83E+00
			-31.50		444.61E+00
			-31.00		445.28E+00
			-30.50		446.37E+00
			-30.00		447.51E+00
			-29.50		448.21E+00
			-29.00		448.92E+00
			-28.50		450.11E+00
			-28.00		451.24E+00
			-27.50		451.86E+00
			-27.00		452.52E+00
			-26.50		453.65E+00
			-26.00		454.73E+00
			-25.50		455.30E+00
			-25.00		456.06E+00
			-24.50		457.46E+00
			-24.00		458.74E+00
			-23.50		459.25E+00
			-23.00		459.64E+00
			-22.50		460.28E+00
			-22.00		461.05E+00
			-21.50		461.99E+00
			-21.00		462.85E+00
			-20.50		463.70E+00
			-20.00		464.54E+00
			-19.50		464.92E+00
			-19.00		465.15E+00
			-18.50		465.75E+00
			-18.00		466.51E+00
			-17.50		467.10E+00
			-17.00		467.70E+00
			-16.50		468.20E+00
			-16.00		468.66E+00
			-15.50		469.42E+00
			-15.00		470.18E+00
			-14.50		470.73E+00
			-14.00		471.15E+00
			-13.50		471.29E+00
			-13.00		471.49E+00
			-12.50		471.88E+00
			-12.00		472.35E+00
			-11.50		472.90E+00
			-11.00		473.32E+00
			-10.50		473.65E+00
			-10.00		474.15E+00
			-9.50		474.52E+00
			-9.00		474.67E+00
			-8.50		474.65E+00
			-8.00		474.86E+00
			-7.50		475.79E+00
			-7.00		476.67E+00
			-6.50		476.96E+00
			-6.00		477.05E+00
			-5.50		476.71E+00
			-5.00		476.40E+00
			-4.50		476.55E+00
			-4.00		476.83E+00
			-3.50		477.61E+00
			-3.00		478.42E+00
			-2.50		478.65E+00
			-2.00		478.71E+00
			-1.50		478.95E+00
			-1.00		479.17E+00
			-0.50		478.92E+00
			0.00		478.66E+00
			0.50		478.92E+00
			1.00		479.17E+00
			1.50		478.95E+00
			2.00		478.71E+00
			2.50		478.65E+00
			3.00		478.42E+00
			3.50		477.61E+00
			4.00		476.83E+00
			4.50		476.55E+00
			5.00		476.40E+00
			5.50		476.71E+00
			6.00		477.05E+00
			6.50		476.96E+00
			7.00		476.67E+00
			7.50		475.79E+00
			8.00		474.86E+00
			8.50		474.65E+00
			9.00		474.67E+00
			9.50		474.52E+00
			10.00		474.15E+00
			10.50		473.65E+00
			11.00		473.32E+00
			11.50		472.90E+00
			12.00		472.35E+00
			12.50		471.88E+00
			13.00		471.49E+00
			13.50		471.29E+00
			14.00		471.15E+00
			14.50		470.73E+00
			15.00		470.18E+00
			15.50		469.42E+00
			16.00		468.66E+00
			16.50		468.20E+00
			17.00		467.70E+00
			17.50		467.10E+00
			18.00		466.51E+00
			18.50		465.75E+00
			19.00		465.15E+00
			19.50		464.92E+00
			20.00		464.54E+00
			20.50		463.70E+00
			21.00		462.85E+00
			21.50		461.99E+00
			22.00		461.05E+00
			22.50		460.28E+00
			23.00		459.64E+00
			23.50		459.25E+00
			24.00		458.74E+00
			24.50		457.46E+00
			25.00		456.06E+00
			25.50		455.30E+00
			26.00		454.73E+00
			26.50		453.65E+00
			27.00		452.52E+00
			27.50		451.86E+00
			28.00		451.24E+00
			28.50		450.11E+00
			29.00		448.92E+00
			29.50		448.21E+00
			30.00		447.51E+00
			30.50		446.37E+00
			31.00		445.28E+00
			31.50		444.61E+00
			32.00		443.83E+00
			32.50		442.52E+00
			33.00		441.22E+00
			33.50		440.22E+00
			34.00		439.29E+00
			34.50		438.07E+00
			35.00		436.77E+00
			35.50		435.36E+00
			36.00		433.84E+00
			36.50		432.29E+00
			37.00		430.86E+00
			37.50		429.54E+00
			38.00		428.10E+00
			38.50		426.19E+00
			39.00		424.17E+00
			39.50		422.23E+00
			40.00		420.18E+00
			40.50		417.41E+00
			41.00		414.37E+00
			41.50		410.62E+00
			42.00		406.43E+00
			42.50		400.83E+00
			43.00		394.49E+00
			43.50		385.84E+00
			44.00		375.92E+00
			44.50		361.83E+00
			45.00		346.61E+00
			45.50		327.54E+00
			46.00		307.23E+00
			46.50		284.26E+00
			47.00		260.40E+00
			47.50		235.19E+00
			48.00		209.88E+00
			48.50		184.61E+00
			49.00		159.65E+00
			49.50		136.96E+00
			50.00		115.30E+00
			50.50		96.479E+00
			51.00		79.133E+00
			51.50		66.068E+00
			52.00		54.396E+00
			52.50		46.544E+00
			53.00		39.780E+00
			53.50		35.307E+00
			54.00		31.568E+00
			54.50		29.001E+00
			55.00		26.791E+00
			55.50		25.107E+00
			56.00		23.566E+00
			56.50		22.314E+00
			57.00		21.152E+00
			57.50		20.207E+00
			58.00		19.334E+00
			58.50		18.573E+00
			59.00		17.869E+00
			59.50		17.328E+00
			60.00		16.785E+00
			60.50		16.242E+00
			61.00		15.717E+00
			61.50		15.225E+00
			62.00		14.781E+00
			62.50		14.423E+00
			63.00		14.055E+00
			63.50		13.721E+00
			64.00		13.410E+00
			64.50		13.115E+00
			65.00		12.826E+00
			65.50		12.547E+00
			66.00		12.278E+00
			66.50		12.040E+00
			67.00		11.805E+00
			67.50		11.576E+00
			68.00		11.355E+00
			68.50		11.160E+00
			69.00		10.969E+00
			69.50		10.755E+00
			70.00		10.549E+00
			70.50		10.410E+00
			71.00		10.265E+00
			71.50		10.041E+00
			72.00		9.8142E+00
			72.50		9.6604E+00
			73.00		9.5088E+00
			73.50		9.3235E+00
			74.00		9.1485E+00
			74.50		9.0331E+00
			75.00		8.9235E+00
			75.50		8.7881E+00
			76.00		8.6326E+00
			76.50		8.4712E+00
			77.00		8.3330E+00
			77.50		8.2680E+00
			78.00		8.1923E+00
			78.50		8.0506E+00
			79.00		7.9194E+00
			79.50		7.8245E+00
			80.00		7.7295E+00
			80.50		7.6498E+00
			81.00		7.5569E+00
			81.50		7.4272E+00
			82.00		7.3052E+00
			82.50		7.2023E+00
			83.00		7.1108E+00
			83.50		7.0216E+00
			84.00		6.9170E+00
			84.50		6.8211E+00
			85.00		6.7361E+00
			85.50		6.6735E+00
			86.00		6.6206E+00
			86.50		6.5441E+00
			87.00		6.4511E+00
			87.50		6.3547E+00
			88.00		6.2724E+00
			88.50		6.2277E+00
			89.00		6.1698E+00
			89.50		6.0700E+00
			90.00		6.0207E+00
		END_DATA
	END_SCAN  1
	BEGIN_SCAN  2
		TASK_NAME=tba PDD Profiles
		PROGRAM=WaterTankScans
		COMMENT=FBF_SanPietro
		MEAS_DATE=08-Feb-2021 09:38:10
		LINAC=MRIdian
		MODALITY=X
		ISOCENTER=900.00
		INPLANE_AXIS=Y
		CROSSPLANE_AXIS=X
		DEPTH_AXIS=Depth
		INPLANE_AXIS_DIR=TARGET_GUN
		CROSSPLANE_AXIS_DIR=LEFT_RIGHT
		DEPTH_AXIS_DIR=UP_DOWN
		ENERGY=6.00
		NOMINAL_DMAX=15.00
		SSD=850.00
		SCD=450.00
		WEDGE_ANGLE=0.00
		FIELD_INPLANE=99.60
		FIELD_CROSSPLANE=99.60
		FIELD_TYPE=RECTANGULAR
		GANTRY=0.00
		GANTRY_UPRIGHT_POSITION=0
		GANTRY_ROTATION=CW
		COLL_ANGLE=0.00
		COLL_OFFSET_INPLANE=0.00
		COLL_OFFSET_CROSSPLANE=0.00
		SCAN_DEVICE=BeamScan
		SCAN_DEVICE_SETUP=BARA_LEFT_RIGHT
		ELECTROMETER=BeamScan
		RANGE_FIELD=LOW
		RANGE_REFERENCE=MEDIUM
		DETECTOR=THIMBLE_CHAMBER
		DETECTOR_RADIUS=2.40
		DETECTOR_NAME=A28MR
		DETECTOR_SN=-
		DETECTOR_CALIBRATION=588000000.00
		DETECTOR_IS_CALIBRATED=0
		DETECTOR_REFERENCE=THIMBLE_CHAMBER
		DETECTOR_REFERENCE_RADIUS=2.75
		DETECTOR_REFERENCE_NAME=A28MR
		DETECTOR_REFERENCE_SN=â€”
		DETECTOR_REFERENCE_IS_CALIBRATED=0
		DETECTOR_REFERENCE_CALIBRATION=303000000.00
		DETECTOR_HV=300.0
		DETECTOR_REFERENCE_HV=300.0
		DETECTOR_ORIENTATION=HORIZONTAL
		FILTER=FFF
		SCAN_SPEED_PROFILE=10.00
		SCAN_PROF_SPEED_DEP=DEPTH
		SCAN_SPEED_PDD=0.00
		SCAN_PDD_SPEED_DEP=ENERGY
		DETECTOR_TYPE=A28MR
		REF_FIELD_DEPTH=220.00
		REF_FIELD_DEFINED=ISOCENTER
		REF_FIELD_INPLANE=100.00
		REF_FIELD_CROSSPLANE=100.00
		REF_SCAN_POSITIONS=-85.00;-84.00;-83.00;-82.00;-81.00;-80.00;-79.00;-78.00;-77.00;-76.00;-75.00;-74.00;-73.00;-72.00;-71.00;-70.00;-69.00;-68.00;-67.00;-66.00;-65.00;-64.00;-63.00;-62.00;-61.00;-60.00;-59.00;-58.00;-57.00;-56.00;-55.00;-54.00;-53.00;-52.00;-51.00;-50.00;-49.00;-48.00;-47.00;-46.00;-45.00;-44.00;-43.00;-42.00;-41.00;-40.00;-39.00;-38.00;-37.00;-36.00;-35.00;-34.00;-33.00;-32.00;-31.00;-30.00;-29.00;-28.00;-27.00;-26.00;-25.00;-24.00;-23.00;-22.00;-21.00;-20.00;-19.00;-18.00;-17.00;-16.00;-15.00;-14.00;-13.00;-12.00;-11.00;-10.00;-9.00;-8.00;-7.00;-6.00;-5.00;-4.00;-3.00;-2.00;-1.00;0.00;1.00;2.00;3.00;4.00;5.00;6.00;7.00;8.00;9.00;10.00;11.00;12.00;13.00;14.00;15.00;16.00;17.00;18.00;19.00;20.00;21.00;22.00;23.00;24.00;25.00;26.00;27.00;28.00;29.00;30.00;31.00;32.00;33.00;34.00;35.00;36.00;37.00;38.00;39.00;40.00;41.00;42.00;43.00;44.00;45.00;46.00;47.00;48.00;49.00;50.00;51.00;52.00;53.00;54.00;55.00;56.00;57.00;58.00;59.00;60.00;61.00;62.00;63.00;64.00;65.00;66.00;67.00;68.00;69.00;70.00;71.00;72.00;73.00;74.00;75.00;76.00;77.00;78.00;79.00;80.00;81.00;82.00;83.00;84.00;85.00;
		REF_OVERSCAN_FACTOR=1.00
		SCAN_CURVETYPE=CROSSPLANE_PROFILE
		SCAN_DEPTH=55.00
		SCAN_OFFAXIS_INPLANE=0.00
		SCAN_OFFAXIS_CROSSPLANE=0.00
		SCAN_ANGLE=0.00
		SCAN_DIAGONAL=NOT_DIAGONAL
		SCAN_DIRECTION=POSITIVE
		MEAS_MEDIUM=WATER
		MEAS_PRESET=MEAS_CONTINUOUS_REFERENCE_SCAN
		MEAS_TIME=0.100
		MEAS_UNIT=A.U.
		INCLINATION_ANGLE=0.00
		PRESSURE=1013.25
		TEMPERATURE=20.00
		NORM_TEMPERATURE=20.00
		CORRECTION_FACTOR=1.0000
		EXPECTED_MAX_DOSE_RATE=3.00
		EPOM_DEPTH_SHIFT=0.2
		EPOM_MODE=SHIFT_PROTOCOL
		CORRECTIONS=SSD_CORR;CAX_CORR;INTERPOLATED_CORR;SYMMETRY_CORR;
		BEGIN_DATA
			-96.50		7.9700E+00
			-96.00		7.9703E+00
			-95.50		8.0553E+00
			-95.00		8.1500E+00
			-94.50		8.2587E+00
			-94.00		8.3573E+00
			-93.50		8.4377E+00
			-93.00		8.5445E+00
			-92.50		8.6713E+00
			-92.00		8.7741E+00
			-91.50		8.8555E+00
			-91.00		8.9543E+00
			-90.50		9.0603E+00
			-90.00		9.1559E+00
			-89.50		9.2586E+00
			-89.00		9.3769E+00
			-88.50		9.5023E+00
			-88.00		9.6306E+00
			-87.50		9.7715E+00
			-87.00		9.9067E+00
			-86.50		10.057E+00
			-86.00		10.224E+00
			-85.50		10.377E+00
			-85.00		10.493E+00
			-84.50		10.617E+00
			-84.00		10.770E+00
			-83.50		10.919E+00
			-83.00		11.049E+00
			-82.50		11.190E+00
			-82.00		11.385E+00
			-81.50		11.582E+00
			-81.00		11.761E+00
			-80.50		11.954E+00
			-80.00		12.147E+00
			-79.50		12.326E+00
			-79.00		12.497E+00
			-78.50		12.670E+00
			-78.00		12.863E+00
			-77.50		13.089E+00
			-77.00		13.313E+00
			-76.50		13.561E+00
			-76.00		13.806E+00
			-75.50		13.997E+00
			-75.00		14.188E+00
			-74.50		14.455E+00
			-74.00		14.741E+00
			-73.50		14.999E+00
			-73.00		15.240E+00
			-72.50		15.531E+00
			-72.00		15.888E+00
			-71.50		16.229E+00
			-71.00		16.529E+00
			-70.50		16.819E+00
			-70.00		17.076E+00
			-69.50		17.348E+00
			-69.00		17.684E+00
			-68.50		18.048E+00
			-68.00		18.484E+00
			-67.50		18.916E+00
			-67.00		19.301E+00
			-66.50		19.684E+00
			-66.00		20.111E+00
			-65.50		20.539E+00
			-65.00		20.999E+00
			-64.50		21.506E+00
			-64.00		22.069E+00
			-63.50		22.677E+00
			-63.00		23.255E+00
			-62.50		23.853E+00
			-62.00		24.487E+00
			-61.50		25.139E+00
			-61.00		25.818E+00
			-60.50		26.648E+00
			-60.00		27.520E+00
			-59.50		28.433E+00
			-59.00		29.353E+00
			-58.50		30.445E+00
			-58.00		31.652E+00
			-57.50		33.135E+00
			-57.00		34.778E+00
			-56.50		36.783E+00
			-56.00		39.112E+00
			-55.50		42.260E+00
			-55.00		46.590E+00
			-54.50		51.798E+00
			-54.00		59.495E+00
			-53.50		68.231E+00
			-53.00		80.442E+00
			-52.50		93.690E+00
			-52.00		110.20E+00
			-51.50		127.74E+00
			-51.00		147.25E+00
			-50.50		167.29E+00
			-50.00		188.62E+00
			-49.50		210.47E+00
			-49.00		232.22E+00
			-48.50		253.70E+00
			-48.00		274.66E+00
			-47.50		294.24E+00
			-47.00		312.43E+00
			-46.50		327.79E+00
			-46.00		342.21E+00
			-45.50		353.27E+00
			-45.00		363.40E+00
			-44.50		370.90E+00
			-44.00		377.78E+00
			-43.50		382.79E+00
			-43.00		387.24E+00
			-42.50		390.62E+00
			-42.00		393.28E+00
			-41.50		395.70E+00
			-41.00		398.24E+00
			-40.50		400.54E+00
			-40.00		402.29E+00
			-39.50		403.79E+00
			-39.00		405.25E+00
			-38.50		406.84E+00
			-38.00		408.37E+00
			-37.50		409.77E+00
			-37.00		411.23E+00
			-36.50		412.78E+00
			-36.00		414.10E+00
			-35.50		415.27E+00
			-35.00		416.48E+00
			-34.50		417.74E+00
			-34.00		418.83E+00
			-33.50		419.79E+00
			-33.00		420.84E+00
			-32.50		422.06E+00
			-32.00		423.21E+00
			-31.50		424.14E+00
			-31.00		425.07E+00
			-30.50		426.16E+00
			-30.00		427.34E+00
			-29.50		428.51E+00
			-29.00		429.64E+00
			-28.50		430.52E+00
			-28.00		431.24E+00
			-27.50		431.86E+00
			-27.00		432.80E+00
			-26.50		433.84E+00
			-26.00		434.73E+00
			-25.50		435.55E+00
			-25.00		436.22E+00
			-24.50		436.84E+00
			-24.00		437.39E+00
			-23.50		437.99E+00
			-23.00		439.06E+00
			-22.50		440.16E+00
			-22.00		440.95E+00
			-21.50		441.58E+00
			-21.00		442.08E+00
			-20.50		442.73E+00
			-20.00		443.56E+00
			-19.50		444.16E+00
			-19.00		444.68E+00
			-18.50		445.20E+00
			-18.00		445.69E+00
			-17.50		446.40E+00
			-17.00		447.13E+00
			-16.50		447.53E+00
			-16.00		447.90E+00
			-15.50		448.17E+00
			-15.00		448.48E+00
			-14.50		449.18E+00
			-14.00		449.97E+00
			-13.50		450.40E+00
			-13.00		450.64E+00
			-12.50		450.95E+00
			-12.00		451.23E+00
			-11.50		451.48E+00
			-11.00		451.96E+00
			-10.50		452.43E+00
			-10.00		452.66E+00
			-9.50		452.82E+00
			-9.00		453.32E+00
			-8.50		453.95E+00
			-8.00		454.38E+00
			-7.50		454.76E+00
			-7.00		455.18E+00
			-6.50		455.61E+00
			-6.00		455.92E+00
			-5.50		456.23E+00
			-5.00		456.36E+00
			-4.50		456.42E+00
			-4.00		456.48E+00
			-3.50		456.77E+00
			-3.00		457.13E+00
			-2.50		457.28E+00
			-2.00		457.32E+00
			-1.50		457.33E+00
			-1.00		457.46E+00
			-0.50		457.65E+00
			0.00		457.79E+00
			0.50		457.65E+00
			1.00		457.46E+00
			1.50		457.33E+00
			2.00		457.32E+00
			2.50		457.28E+00
			3.00		457.13E+00
			3.50		456.77E+00
			4.00		456.48E+00
			4.50		456.42E+00
			5.00		456.36E+00
			5.50		456.23E+00
			6.00		455.92E+00
			6.50		455.61E+00
			7.00		455.18E+00
			7.50		454.76E+00
			8.00		454.38E+00
			8.50		453.95E+00
			9.00		453.32E+00
			9.50		452.82E+00
			10.00		452.66E+00
			10.50		452.43E+00
			11.00		451.96E+00
			11.50		451.48E+00
			12.00		451.23E+00
			12.50		450.95E+00
			13.00		450.64E+00
			13.50		450.40E+00
			14.00		449.97E+00
			14.50		449.18E+00
			15.00		448.48E+00
			15.50		448.17E+00
			16.00		447.90E+00
			16.50		447.53E+00
			17.00		447.13E+00
			17.50		446.40E+00
			18.00		445.69E+00
			18.50		445.20E+00
			19.00		444.68E+00
			19.50		444.16E+00
			20.00		443.56E+00
			20.50		442.73E+00
			21.00		442.08E+00
			21.50		441.58E+00
			22.00		440.95E+00
			22.50		440.16E+00
			23.00		439.06E+00
			23.50		437.99E+00
			24.00		437.39E+00
			24.50		436.84E+00
			25.00		436.22E+00
			25.50		435.55E+00
			26.00		434.73E+00
			26.50		433.84E+00
			27.00		432.80E+00
			27.50		431.86E+00
			28.00		431.24E+00
			28.50		430.52E+00
			29.00		429.64E+00
			29.50		428.51E+00
			30.00		427.34E+00
			30.50		426.16E+00
			31.00		425.07E+00
			31.50		424.14E+00
			32.00		423.21E+00
			32.50		422.06E+00
			33.00		420.84E+00
			33.50		419.79E+00
			34.00		418.83E+00
			34.50		417.74E+00
			35.00		416.48E+00
			35.50		415.27E+00
			36.00		414.10E+00
			36.50		412.78E+00
			37.00		411.23E+00
			37.50		409.77E+00
			38.00		408.37E+00
			38.50		406.84E+00
